Wavenumbers [1/cm],Absorbance
3997.712,-0.000121285
3995.783,-0.00013676
3993.855,-0.000138882
3991.926,-0.000132102
3989.998,-0.000134742
3988.069,-0.000140538
3986.141,-0.000136346
3984.212,-0.000129928
3982.284,-0.000121233
3980.355,-0.000105809
3978.427,-9.18E-05
3976.499,-9.09E-05
3974.57,-0.000106585
3972.642,-0.000127858
3970.713,-0.000142764
3968.785,-0.000144161
3966.856,-0.000128686
3964.928,-0.000109484
3962.999,-0.000108086
3961.071,-0.000120508
3959.142,-0.000122993
3957.214,-0.000115436
3955.285,-0.000114297
3953.357,-0.000122786
3951.428,-0.000135363
3949.5,-0.000144161
3947.572,-0.000144368
3945.643,-0.000144368
3943.715,-0.000152131
3941.786,-0.000157565
3939.858,-0.000149181
3937.929,-0.00013381
3936.001,-0.000128117
3934.072,-0.000133862
3932.144,-0.000135984
3930.215,-0.000132982
3928.287,-0.000134586
3926.358,-0.000135984
3924.43,-0.000132464
3922.501,-0.000134742
3920.573,-0.000145558
3918.645,-0.000154512
3916.716,-0.000157721
3914.788,-0.000157358
3912.859,-0.000152442
3910.931,-0.000142401
3909.002,-0.000131429
3907.074,-0.000133551
3905.145,-0.00015063
3903.217,-0.000161343
3901.288,-0.00015446
3899.36,-0.000143126
3897.431,-0.000140486
3895.503,-0.000141211
3893.574,-0.000140745
3891.646,-0.000145817
3889.718,-0.000157928
3887.789,-0.000172108
3885.861,-0.000171694
3883.932,-0.000147836
3882.004,-0.000130446
3880.075,-0.000142557
3878.147,-0.000161602
3876.218,-0.0001645
3874.29,-0.000162068
3872.361,-0.000172004
3870.433,-0.000187064
3868.504,-0.000188823
3866.576,-0.000176713
3864.647,-0.00016538
3862.719,-0.00016657
3860.791,-0.000176972
3858.862,-0.000181992
3856.934,-0.000175264
3855.005,-0.000169934
3853.077,-0.000178628
3851.148,-0.000189289
3849.22,-0.000183389
3847.291,-0.000162585
3845.363,-0.000146386
3843.434,-0.000146542
3841.506,-0.000157824
3839.577,-0.000177438
3837.649,-0.000193791
3835.72,-0.000192808
3833.792,-0.000185822
3831.864,-0.00018401
3829.935,-0.00017987
3828.007,-0.000174022
3826.078,-0.000172159
3824.15,-0.000166829
3822.221,-0.000167657
3820.293,-0.000187633
3818.364,-0.000200104
3816.436,-0.000192963
3814.507,-0.000191152
3812.579,-0.00020471
3810.65,-0.000220958
3808.722,-0.000224218
3806.793,-0.000212368
3804.865,-0.000193066
3802.937,-0.000175937
3801.008,-0.000173815
3799.08,-0.00018665
3797.151,-0.000201346
3795.223,-0.000211954
3793.294,-0.000216819
3791.366,-0.000212213
3789.437,-0.000202899
3787.509,-0.00020352
3785.58,-0.000211333
3783.652,-0.000213662
3781.723,-0.000216301
3779.795,-0.000224011
3777.866,-0.000230945
3775.938,-0.000233998
3774.01,-0.000236482
3772.081,-0.000241708
3770.153,-0.000233532
3768.224,-0.000210299
3766.296,-0.000205383
3764.367,-0.000229444
3762.439,-0.000253557
3760.51,-0.000255006
3758.582,-0.000249159
3756.653,-0.000250349
3754.725,-0.000239379
3752.796,-0.000222666
3750.868,-0.000232704
3748.939,-0.000265561
3747.011,-0.000301415
3745.083,-0.000351389
3743.154,-0.000436373
3741.226,-0.000543162
3739.297,-0.00064491
3737.369,-0.000748546
3735.44,-0.000870139
3733.512,-0.000996966
3731.583,-0.001101138
3729.655,-0.001156493
3727.726,-0.001169712
3725.798,-0.001165529
3723.869,-0.001133257
3721.941,-0.001050062
3720.012,-0.000913641
3718.084,-0.000749166
3716.156,-0.000610842
3714.227,-0.000562914
3712.299,-0.000634364
3710.37,-0.000772371
3708.442,-0.000903567
3706.513,-0.00101086
3704.585,-0.001095303
3702.656,-0.001151795
3700.728,-0.001183446
3698.799,-0.001185459
3696.871,-0.001152776
3694.942,-0.001110795
3693.014,-0.001088692
3691.085,-0.001074439
3689.157,-0.00103808
3687.229,-0.000990303
3685.3,-0.000963752
3683.372,-0.000968039
3681.443,-0.000993505
3679.515,-0.001024496
3677.586,-0.00105688
3675.658,-0.001076092
3673.729,-0.001069843
3671.801,-0.001070462
3669.872,-0.001095251
3667.944,-0.001139815
3666.015,-0.001206524
3664.087,-0.001268938
3662.158,-0.001299807
3660.23,-0.001315859
3658.302,-0.001346414
3656.373,-0.001385637
3654.445,-0.001422845
3652.516,-0.001475786
3650.588,-0.001540586
3648.659,-0.001589437
3646.731,-0.001627194
3644.802,-0.001680936
3642.874,-0.001743488
3640.945,-0.001792214
3639.017,-0.001850729
3637.088,-0.001950882
3635.16,-0.002060391
3633.231,-0.002132883
3631.303,-0.002189138
3629.375,-0.002273557
3627.446,-0.0023697
3625.518,-0.002410838
3623.589,-0.002382521
3621.661,-0.002330205
3619.732,-0.002259085
3617.804,-0.00215416
3615.875,-0.002030247
3613.947,-0.001924029
3612.018,-0.001887535
3610.09,-0.001948254
3608.161,-0.002068326
3606.233,-0.002175641
3604.304,-0.002237195
3602.376,-0.00225105
3600.448,-0.002229675
3598.519,-0.002224267
3596.591,-0.002239668
3594.662,-0.002224009
3592.734,-0.002179093
3590.805,-0.002131853
3588.877,-0.002083011
3586.948,-0.002050034
3585.02,-0.002034936
3583.091,-0.002004068
3581.163,-0.001965313
3579.234,-0.001936193
3577.306,-0.001894133
3575.377,-0.001842635
3573.449,-0.001823509
3571.521,-0.001854801
3569.592,-0.001894907
3567.664,-0.001897999
3565.735,-0.001869596
3563.807,-0.00183949
3561.878,-0.00184346
3559.95,-0.001882535
3558.021,-0.001907381
3556.093,-0.001895422
3554.164,-0.001873926
3552.236,-0.001875782
3550.307,-0.001905834
3548.379,-0.001930472
3546.45,-0.001919236
3544.522,-0.001910009
3542.594,-0.001954284
3540.665,-0.002032463
3538.737,-0.002104084
3536.808,-0.002146226
3534.88,-0.002149523
3532.951,-0.002150966
3531.023,-0.002175538
3529.094,-0.002204282
3527.166,-0.002236783
3525.237,-0.00226578
3523.309,-0.002267068
3521.38,-0.002251359
3519.452,-0.002243427
3517.523,-0.002259033
3515.595,-0.002318361
3513.667,-0.00241851
3511.738,-0.002494803
3509.81,-0.002505201
3507.881,-0.00250098
3505.953,-0.002519201
3504.024,-0.002532481
3502.096,-0.0025349
3500.167,-0.002544217
3498.239,-0.002582765
3496.31,-0.00266541
3494.382,-0.002731782
3492.453,-0.002765325
3490.525,-0.00286033
3488.596,-0.002971923
3486.668,-0.002990794
3484.74,-0.003005807
3482.811,-0.003119471
3480.883,-0.003254789
3478.954,-0.003291374
3477.026,-0.003237061
3475.097,-0.003207255
3473.169,-0.003237678
3471.24,-0.003260287
3469.312,-0.003269537
3467.383,-0.003313108
3465.455,-0.003397463
3463.526,-0.003496336
3461.598,-0.003575367
3459.669,-0.003661725
3457.741,-0.003796105
3455.813,-0.003906381
3453.884,-0.003943629
3451.956,-0.003997085
3450.027,-0.004096539
3448.099,-0.004163103
3446.17,-0.004221659
3444.242,-0.004349459
3442.313,-0.004471277
3440.385,-0.00450115
3438.456,-0.004493772
3436.528,-0.004500587
3434.599,-0.00454803
3432.671,-0.00468229
3430.742,-0.004851273
3428.814,-0.004981959
3426.885,-0.005089887
3424.957,-0.005193031
3423.029,-0.005292263
3421.1,-0.005331541
3419.172,-0.005285768
3417.243,-0.005315022
3415.315,-0.005476704
3413.386,-0.005601989
3411.458,-0.005667351
3409.529,-0.005776642
3407.601,-0.005914353
3405.672,-0.006071982
3403.744,-0.006237057
3401.815,-0.006327173
3399.887,-0.006330337
3397.958,-0.006267829
3396.03,-0.006205619
3394.102,-0.006237261
3392.173,-0.006279158
3390.245,-0.006293139
3388.316,-0.006446908
3386.388,-0.006677102
3384.459,-0.006793886
3382.531,-0.006856828
3380.602,-0.006906868
3378.674,-0.006916397
3376.745,-0.006931836
3374.817,-0.006986453
3372.888,-0.007011772
3370.96,-0.006924652
3369.031,-0.00685061
3367.103,-0.006789299
3365.175,-0.006676898
3363.246,-0.006770593
3361.318,-0.007042999
3359.389,-0.007193651
3357.461,-0.007187591
3355.532,-0.00703979
3353.604,-0.006781705
3351.675,-0.006576044
3349.747,-0.0064794
3347.818,-0.006412578
3345.89,-0.006383397
3343.961,-0.00640819
3342.033,-0.00648399
3340.104,-0.006630655
3338.176,-0.006783641
3336.248,-0.006911964
3334.319,-0.006979983
3332.391,-0.00692083
3330.462,-0.006761877
3328.534,-0.006618061
3326.605,-0.006657882
3324.677,-0.006774365
3322.748,-0.006707588
3320.82,-0.006515867
3318.891,-0.006299722
3316.963,-0.006068103
3315.034,-0.005958017
3313.106,-0.005989881
3311.177,-0.00598743
3309.249,-0.005900972
3307.321,-0.00576249
3305.392,-0.005626469
3303.464,-0.005651254
3301.535,-0.005768928
3299.607,-0.005715588
3297.678,-0.005511364
3295.75,-0.005343661
3293.821,-0.005239888
3291.893,-0.005149852
3289.964,-0.005119257
3288.036,-0.00525155
3286.107,-0.005423481
3284.179,-0.005398683
3282.25,-0.005270986
3280.322,-0.005213749
3278.394,-0.005192673
3276.465,-0.005198505
3274.537,-0.005264184
3272.608,-0.005350258
3270.68,-0.005407682
3268.751,-0.005395921
3266.823,-0.00528183
3264.894,-0.005222957
3262.966,-0.005387536
3261.037,-0.005515351
3259.109,-0.005407733
3257.18,-0.005332564
3255.252,-0.005456049
3253.323,-0.005681966
3251.395,-0.005928704
3249.467,-0.00607816
3247.538,-0.006017403
3245.61,-0.005837228
3243.681,-0.00575028
3241.753,-0.005859958
3239.824,-0.006007191
3237.896,-0.005949234
3235.967,-0.005789618
3234.039,-0.005787932
3232.11,-0.005814241
3230.182,-0.005680893
3228.253,-0.005638018
3226.325,-0.005813884
3224.396,-0.005955259
3222.468,-0.005992128
3220.54,-0.006042779
3218.611,-0.006088574
3216.683,-0.006025062
3214.754,-0.005884169
3212.826,-0.005788341
3210.897,-0.005774956
3208.969,-0.005782926
3207.04,-0.005720339
3205.112,-0.005615072
3203.183,-0.0055588
3201.255,-0.005563502
3199.326,-0.005533805
3197.398,-0.005395103
3195.469,-0.005276715
3193.541,-0.005216204
3191.613,-0.005070442
3189.684,-0.00492458
3187.756,-0.004945107
3185.827,-0.005011643
3183.899,-0.00494265
3181.97,-0.004762079
3180.042,-0.004579486
3178.113,-0.004476862
3176.185,-0.004476504
3174.256,-0.004508989
3172.328,-0.004480654
3170.399,-0.004392409
3168.471,-0.004326444
3166.542,-0.004293586
3164.614,-0.004286512
3162.686,-0.004290767
3160.757,-0.004171872
3158.829,-0.003900839
3156.9,-0.003665421
3154.972,-0.003600475
3153.043,-0.003679949
3151.115,-0.003764849
3149.186,-0.003714753
3147.258,-0.00357624
3145.329,-0.003488068
3143.401,-0.003451037
3141.472,-0.003387806
3139.544,-0.003304579
3137.615,-0.00325371
3135.687,-0.003202425
3133.759,-0.00311212
3131.83,-0.003016656
3129.902,-0.002907491
3127.973,-0.002766302
3126.045,-0.00265337
3124.116,-0.002610401
3122.188,-0.002588838
3120.259,-0.002515804
3118.331,-0.002383293
3116.402,-0.002242912
3114.474,-0.002127834
3112.545,-0.002005666
3110.617,-0.001850162
3108.688,-0.001698934
3106.76,-0.001584743
3104.832,-0.001502151
3102.903,-0.001433475
3100.975,-0.001344195
3099.046,-0.001219947
3097.118,-0.001117921
3095.189,-0.001050682
3093.261,-0.000938129
3091.332,-0.000758159
3089.404,-0.000572531
3087.475,-0.000449872
3085.547,-0.000398461
3083.618,-0.000350148
3081.69,-0.000254954
3079.761,-0.000128531
3077.833,-1.18E-05
3075.905,9.45E-05
3073.976,0.00021514
3072.048,0.000326415
3070.119,0.000400148
3068.191,0.000462026
3066.262,0.000547056
3064.334,0.000647891
3062.405,0.000729691
3060.477,0.000773307
3058.548,0.000789385
3056.62,0.000808861
3054.691,0.000835522
3052.763,0.00084045
3050.834,0.000825693
3048.906,0.000828156
3046.978,0.000859124
3045.049,0.000883454
3043.121,0.000885374
3041.192,0.00089121
3039.264,0.000920496
3037.335,0.000959332
3035.407,0.000980917
3033.478,0.000988493
3031.55,0.001000453
3029.621,0.001020977
3027.693,0.001053827
3025.764,0.001075884
3023.836,0.001050713
3021.907,0.000991814
3019.979,0.000929705
3018.051,0.000881509
3016.122,0.000874013
3014.194,0.000905062
3012.265,0.000934453
3010.337,0.000954454
3008.408,0.000989608
3006.48,0.001042539
3004.551,0.001098176
3002.623,0.001141828
3000.694,0.001179749
2998.766,0.001241659
2996.837,0.001325077
2994.909,0.001404771
2992.98,0.001483363
2991.052,0.00156106
2989.124,0.001639004
2987.195,0.001742744
2985.267,0.001872012
2983.338,0.001992763
2981.41,0.002097055
2979.481,0.002214382
2977.553,0.002352535
2975.624,0.00247998
2973.696,0.002580718
2971.767,0.002676192
2969.839,0.002784557
2967.91,0.002885365
2965.982,0.002950777
2964.053,0.002995451
2962.125,0.003039216
2960.197,0.003063825
2958.268,0.003058011
2956.34,0.00304138
2954.411,0.003018701
2952.483,0.002985624
2950.554,0.00295354
2948.626,0.002933133
2946.697,0.002937538
2944.769,0.00297843
2942.84,0.003041432
2940.912,0.003094744
2938.983,0.003116983
2937.055,0.003114298
2935.126,0.003097846
2933.198,0.00306565
2931.27,0.003025427
2929.341,0.002980151
2927.413,0.002924715
2925.484,0.002876949
2923.556,0.002840756
2921.627,0.002796254
2919.699,0.002742536
2917.77,0.002682182
2915.842,0.002622541
2913.913,0.002581056
2911.985,0.002547336
2910.056,0.002503385
2908.128,0.002453452
2906.199,0.002408183
2904.271,0.00237989
2902.343,0.002368802
2900.414,0.002360811
2898.486,0.002348683
2896.557,0.002327862
2894.629,0.002306496
2892.7,0.002300121
2890.772,0.002304441
2888.843,0.002319639
2886.915,0.002350245
2884.986,0.002380645
2883.058,0.002402483
2881.129,0.002425025
2879.201,0.002449
2877.272,0.002450875
2875.344,0.002414014
2873.416,0.002358599
2871.487,0.002304675
2869.559,0.002246906
2867.63,0.002173769
2865.702,0.002082203
2863.773,0.00198777
2861.845,0.001912805
2859.916,0.001861691
2857.988,0.001823633
2856.059,0.00177843
2854.131,0.001721381
2852.202,0.001670992
2850.274,0.001639342
2848.345,0.001624558
2846.417,0.001612372
2844.489,0.00158904
2842.56,0.001566541
2840.632,0.001555059
2838.703,0.001547109
2836.775,0.001543187
2834.846,0.001537965
2832.918,0.001509962
2830.989,0.001463311
2829.061,0.001427288
2827.132,0.001410459
2825.204,0.001402979
2823.275,0.001402018
2821.347,0.00140568
2819.418,0.001399292
2817.49,0.001385476
2815.562,0.001386047
2813.633,0.001391942
2811.705,0.001380049
2809.776,0.001351952
2807.848,0.001322766
2805.919,0.001302592
2803.991,0.001284833
2802.062,0.001267724
2800.134,0.001258741
2798.205,0.001250382
2796.277,0.001233638
2794.348,0.001210924
2792.42,0.001184629
2790.491,0.001158439
2788.563,0.001142633
2786.635,0.001139778
2784.706,0.001138999
2782.778,0.001131265
2780.849,0.001119327
2778.921,0.001112683
2776.992,0.00110892
2775.064,0.00109693
2773.135,0.001081308
2771.207,0.001070253
2769.278,0.001054372
2767.35,0.001025025
2765.421,0.00099376
2763.493,0.000976039
2761.564,0.000968023
2759.636,0.000958501
2757.708,0.000949629
2755.779,0.000940679
2753.851,0.00092776
2751.922,0.000917928
2749.994,0.000914789
2748.065,0.000913829
2746.137,0.00091261
2744.208,0.000901638
2742.28,0.000872716
2740.351,0.000842214
2738.423,0.000829453
2736.494,0.000828675
2734.566,0.000824085
2732.637,0.000815137
2730.709,0.00080842
2728.781,0.000797243
2726.852,0.000779401
2724.924,0.000767965
2722.995,0.000767316
2721.067,0.000768328
2719.138,0.000762726
2717.21,0.000751083
2715.281,0.000740996
2713.353,0.000735007
2711.424,0.000728109
2709.496,0.000717271
2707.567,0.000707392
2705.639,0.00070441
2703.71,0.000701533
2701.782,0.000688595
2699.854,0.000674776
2697.925,0.000674698
2695.997,0.000676643
2694.068,0.000662513
2692.14,0.000643847
2690.211,0.000642732
2688.283,0.000653517
2686.354,0.000653076
2684.426,0.000639103
2682.497,0.000629304
2680.569,0.000629926
2678.64,0.000630496
2676.712,0.000622667
2674.783,0.000610354
2672.855,0.000601385
2670.927,0.000592442
2668.998,0.000577408
2667.07,0.000565407
2665.141,0.000563696
2663.213,0.000561726
2661.284,0.00055281
2659.356,0.000543764
2657.427,0.000539903
2655.499,0.00053871
2653.57,0.000537622
2651.642,0.000536456
2649.713,0.000534849
2647.785,0.000529276
2645.856,0.000512586
2643.928,0.000490505
2642,0.000488614
2640.071,0.000509683
2638.143,0.000520801
2636.214,0.000501623
2634.286,0.000464539
2632.357,0.000426966
2630.429,0.000398905
2628.5,0.00039393
2626.572,0.00040533
2624.643,0.000406082
2622.715,0.000393567
2620.786,0.000372685
2618.858,0.000353928
2616.929,0.000355197
2615.001,0.000357529
2613.073,0.000350197
2611.144,0.000358617
2609.216,0.000374317
2607.287,0.000380198
2605.359,0.000393049
2603.43,0.000411342
2601.502,0.000415591
2599.573,0.000414244
2597.645,0.000409476
2595.716,0.000384111
2593.788,0.000350586
2591.859,0.000338177
2589.931,0.00033841
2588.002,0.000311442
2586.074,0.000258004
2584.146,0.000229721
2582.217,0.000231068
2580.289,0.000226794
2578.36,0.00023933
2576.432,0.000269971
2574.503,0.000245753
2572.575,0.00018414
2570.646,0.000184192
2568.718,0.000224489
2566.789,0.000223557
2564.861,0.000196027
2562.932,0.000185849
2561.004,0.00018932
2559.075,0.000203045
2557.147,0.000204884
2555.219,0.000148223
2553.29,7.28E-05
2551.362,4.21E-05
2549.433,3.10E-05
2547.505,2.30E-05
2545.576,4.70E-05
2543.648,9.49E-05
2541.719,0.000123986
2539.791,0.000123494
2537.862,0.00010076
2535.934,7.20E-05
2534.005,7.95E-05
2532.077,0.000103996
2530.148,9.00E-05
2528.22,5.02E-05
2526.292,2.65E-05
2524.363,5.90E-05
2522.435,0.000133463
2520.506,0.000174481
2518.578,0.000176552
2516.649,0.000173522
2514.721,0.000152935
2512.792,0.000128983
2510.864,0.000120128
2508.935,0.000116503
2507.007,0.000123028
2505.078,0.000126031
2503.15,0.000104411
2501.221,6.81E-05
2499.293,5.94E-05
2497.365,9.20E-05
2495.436,8.73E-05
2493.508,2.37E-05
2491.579,-1.56E-05
2489.651,-1.48E-05
2487.722,-5.95E-06
2485.794,1.69E-05
2483.865,3.20E-05
2481.937,8.52E-06
2480.008,-2.59E-07
2478.08,3.91E-05
2476.151,6.08E-05
2474.223,3.43E-05
2472.294,-2.26E-05
2470.366,-9.94E-05
2468.438,-0.000136449
2466.509,-0.000104101
2464.581,-5.79E-05
2462.652,-1.84E-05
2460.724,2.43E-05
2458.795,4.73E-05
2456.867,2.73E-05
2454.938,-1.11E-05
2453.01,-5.01E-05
2451.081,-0.000111554
2449.153,-0.000155185
2447.224,-0.000136708
2445.296,-0.000104567
2443.367,-9.76E-05
2441.439,-0.000113728
2439.51,-0.00015534
2437.582,-0.000205952
2435.654,-0.000214697
2433.725,-0.000156944
2431.797,-9.60E-05
2429.868,-9.09E-05
2427.94,-9.63E-05
2426.011,-8.04E-05
2424.083,-7.90E-05
2422.154,-0.000102134
2420.226,-0.000128427
2418.297,-0.000135621
2416.369,-0.000128841
2414.44,-0.000118852
2412.512,-0.000119784
2410.583,-0.000150889
2408.655,-0.000179146
2406.727,-0.000208229
2404.798,-0.00026763
2402.87,-0.000299087
2400.941,-0.000273787
2399.013,-0.000234308
2397.084,-0.00019819
2395.156,-0.000166777
2393.227,-0.000154822
2391.299,-0.000173867
2389.37,-0.0002385
2387.442,-0.000388582
2385.513,-0.000721825
2383.585,-0.001385741
2381.656,-0.002508392
2379.728,-0.004136592
2377.8,-0.006187347
2375.871,-0.008476299
2373.943,-0.01079259
2372.014,-0.01298547
2370.086,-0.01501746
2368.157,-0.0168741
2366.229,-0.01845383
2364.3,-0.01961988
2362.372,-0.02036236
2360.443,-0.02067036
2358.515,-0.02039294
2356.586,-0.01941823
2354.658,-0.01765021
2352.729,-0.01490652
2350.801,-0.01186059
2348.873,-0.0103937
2346.944,-0.01149808
2345.016,-0.01383742
2343.087,-0.01532523
2341.159,-0.01566049
2339.23,-0.01549152
2337.302,-0.01512762
2335.373,-0.01474916
2333.445,-0.01449477
2331.516,-0.01427319
2329.588,-0.01380332
2327.659,-0.01308756
2325.731,-0.01243476
2323.802,-0.01193409
2321.874,-0.01132768
2319.946,-0.0103841
2318.017,-0.009193106
2316.089,-0.008050881
2314.16,-0.007145527
2312.232,-0.006380744
2310.303,-0.005608633
2308.375,-0.004833968
2306.446,-0.004096386
2304.518,-0.003420065
2302.589,-0.002881674
2300.661,-0.002496553
2298.732,-0.002174096
2296.804,-0.001881556
2294.875,-0.001615537
2292.947,-0.001365149
2291.019,-0.001152776
2289.09,-0.000966076
2287.162,-0.000777281
2285.233,-0.000610428
2283.305,-0.000506914
2281.376,-0.000501432
2279.448,-0.000628936
2277.519,-0.000819088
2275.591,-0.000903722
2273.662,-0.000806014
2271.734,-0.000626868
2269.805,-0.000517411
2267.877,-0.00046849
2265.948,-0.000448838
2264.02,-0.000470352
2262.092,-0.00044289
2260.163,-0.000455923
2258.235,-0.0006843
2256.306,-0.000952439
2254.378,-0.001036376
2252.449,-0.00095466
2250.521,-0.000752784
2248.592,-0.000497657
2246.664,-0.000317143
2244.735,-0.000248072
2242.807,-0.000318281
2240.878,-0.000586852
2238.95,-0.000890237
2237.021,-0.001062147
2235.093,-0.001161657
2233.165,-0.001098711
2231.236,-0.000885897
2229.308,-0.000806737
2227.379,-0.0008133
2225.451,-0.000669206
2223.522,-0.000503346
2221.594,-0.000473507
2219.665,-0.000286308
2217.737,5.35E-05
2215.808,-8.80E-07
2213.88,-0.000659694
2211.951,-0.001776539
2210.023,-0.002699884
2208.094,-0.002577362
2206.166,-0.001811445
2204.238,-0.001377019
2202.309,-0.001309665
2200.381,-0.001327989
2198.452,-0.001495237
2196.524,-0.001790667
2194.595,-0.00200716
2192.667,-0.001976755
2190.738,-0.001816806
2188.81,-0.001758648
