Wavenumbers [1/cm],Absorbance
3997.712,-0.000344172
3995.783,-0.000348065
3993.855,-0.000347351
3991.926,-0.000341462
3989.998,-0.000348323
3988.069,-0.000370224
3986.141,-0.000379138
3984.212,-0.000366617
3982.284,-0.000352779
3980.355,-0.000343537
3978.427,-0.000327602
3976.499,-0.000315103
3974.57,-0.000323263
3972.642,-0.000338404
3970.713,-0.000342003
3968.785,-0.000339207
3966.856,-0.000335231
3964.928,-0.000330313
3962.999,-0.00032777
3961.071,-0.000323274
3959.142,-0.000315628
3957.214,-0.000316438
3955.285,-0.000326453
3953.357,-0.00033657
3951.428,-0.0003468
3949.5,-0.000357465
3947.572,-0.000365586
3945.643,-0.000372944
3943.715,-0.000377884
3941.786,-0.00037008
3939.858,-0.000355408
3937.929,-0.000353122
3936.001,-0.000360032
3934.072,-0.000366368
3932.144,-0.000372476
3930.215,-0.000378354
3928.287,-0.000385173
3926.358,-0.000385523
3924.43,-0.000373581
3922.501,-0.000363355
3920.573,-0.00036278
3918.645,-0.00036648
3916.716,-0.000369098
3914.788,-0.000367185
3912.859,-0.000366296
3910.931,-0.000372958
3909.002,-0.000380837
3907.074,-0.000383011
3905.145,-0.000380377
3903.217,-0.000373602
3901.288,-0.000362777
3899.36,-0.000355136
3897.431,-0.000355758
3895.503,-0.000354348
3893.574,-0.000346477
3891.646,-0.000342355
3889.718,-0.000347147
3887.789,-0.000362018
3885.861,-0.000378027
3883.932,-0.000378272
3882.004,-0.00037162
3880.075,-0.000377599
3878.147,-0.000385741
3876.218,-0.00037865
3874.29,-0.000366364
3872.361,-0.000371927
3870.433,-0.000395538
3868.504,-0.000410775
3866.576,-0.000404352
3864.647,-0.000391208
3862.719,-0.000381445
3860.791,-0.000376005
3858.862,-0.000374342
3856.934,-0.00037589
3855.005,-0.000385638
3853.077,-0.00039701
3851.148,-0.000395348
3849.22,-0.000383856
3847.291,-0.000377835
3845.363,-0.000388041
3843.434,-0.000406761
3841.506,-0.000420065
3839.577,-0.000430488
3837.649,-0.000439166
3835.72,-0.000438971
3833.792,-0.000431351
3831.864,-0.000418976
3829.935,-0.000406851
3828.007,-0.000402409
3826.078,-0.000398903
3824.15,-0.00038835
3822.221,-0.000381312
3820.293,-0.000386732
3818.364,-0.000397216
3816.436,-0.000410764
3814.507,-0.000430024
3812.579,-0.000442973
3810.65,-0.000442368
3808.722,-0.000440888
3806.793,-0.000442751
3804.865,-0.000434038
3802.937,-0.000418961
3801.008,-0.000415957
3799.08,-0.000426946
3797.151,-0.000437343
3795.223,-0.000429821
3793.294,-0.00041363
3791.366,-0.000413068
3789.437,-0.000423229
3787.509,-0.000431717
3785.58,-0.000434554
3783.652,-0.000430259
3781.723,-0.000428858
3779.795,-0.000432254
3777.866,-0.000437323
3775.938,-0.000447206
3774.01,-0.000459296
3772.081,-0.000473872
3770.153,-0.000476917
3768.224,-0.000451638
3766.296,-0.000431127
3764.367,-0.000446916
3762.439,-0.000471911
3760.51,-0.000476389
3758.582,-0.000468446
3756.653,-0.000456423
3754.725,-0.000435292
3752.796,-0.000422861
3750.868,-0.000437693
3748.939,-0.000451338
3747.011,-0.00043896
3745.083,-0.000429493
3743.154,-0.000444103
3741.226,-0.000454596
3739.297,-0.000442948
3737.369,-0.000420759
3735.44,-0.000394419
3733.512,-0.000363402
3731.583,-0.000331681
3729.655,-0.000310304
3727.726,-0.000311041
3725.798,-0.000333344
3723.869,-0.000364773
3721.941,-0.000399067
3720.012,-0.000439975
3718.084,-0.000488703
3716.156,-0.000538091
3714.227,-0.000562838
3712.299,-0.000549314
3710.37,-0.000527432
3708.442,-0.000524765
3706.513,-0.000533893
3704.585,-0.000542529
3702.656,-0.00056211
3700.728,-0.000601266
3698.799,-0.000636421
3696.871,-0.000656277
3694.942,-0.000683608
3693.014,-0.000732379
3691.085,-0.000795928
3689.157,-0.000857637
3687.229,-0.000911342
3685.3,-0.000965692
3683.372,-0.001020052
3681.443,-0.00106942
3679.515,-0.001118315
3677.586,-0.001174999
3675.658,-0.001231232
3673.729,-0.001280777
3671.801,-0.001333637
3669.872,-0.001382809
3667.944,-0.001432633
3666.015,-0.001492951
3664.087,-0.001539952
3662.158,-0.001570338
3660.23,-0.001599509
3658.302,-0.001635454
3656.373,-0.001688052
3654.445,-0.001753141
3652.516,-0.001814875
3650.588,-0.00185582
3648.659,-0.001882548
3646.731,-0.001926632
3644.802,-0.001978764
3642.874,-0.001996265
3640.945,-0.001988053
3639.017,-0.001990857
3637.088,-0.001991934
3635.16,-0.001969517
3633.231,-0.001951832
3631.303,-0.001969947
3629.375,-0.002010513
3627.446,-0.002047254
3625.518,-0.002059757
3623.589,-0.002047686
3621.661,-0.00204559
3619.732,-0.002073336
3617.804,-0.002115134
3615.875,-0.002140989
3613.947,-0.002140384
3612.018,-0.002139099
3610.09,-0.002139493
3608.161,-0.002116519
3606.233,-0.002087781
3604.304,-0.002088935
3602.376,-0.00209976
3600.448,-0.002105252
3598.519,-0.002141689
3596.591,-0.002190755
3594.662,-0.002194198
3592.734,-0.002171483
3590.805,-0.002168237
3588.877,-0.002180631
3586.948,-0.00221334
3585.02,-0.002255184
3583.091,-0.002245443
3581.163,-0.002209139
3579.234,-0.002234813
3577.306,-0.002296646
3575.377,-0.002292727
3573.449,-0.002232657
3571.521,-0.002218753
3569.592,-0.002261844
3567.664,-0.002314043
3565.735,-0.002361895
3563.807,-0.002370976
3561.878,-0.0023428
3559.95,-0.00233025
3558.021,-0.002324942
3556.093,-0.00229586
3554.164,-0.002270932
3552.236,-0.002296226
3550.307,-0.002361696
3548.379,-0.002398625
3546.45,-0.00237243
3544.522,-0.00233542
3542.594,-0.002346387
3540.665,-0.002409433
3538.737,-0.002496141
3536.808,-0.002560865
3534.88,-0.002572411
3532.951,-0.002561422
3531.023,-0.002554938
3529.094,-0.002545479
3527.166,-0.002565939
3525.237,-0.002640626
3523.309,-0.002719282
3521.38,-0.00274929
3519.452,-0.002735429
3517.523,-0.002716651
3515.595,-0.002756999
3513.667,-0.002892402
3511.738,-0.003014915
3509.81,-0.00301921
3507.881,-0.00298198
3505.953,-0.002972706
3504.024,-0.002955085
3502.096,-0.002945007
3500.167,-0.002993992
3498.239,-0.003088698
3496.31,-0.003184868
3494.382,-0.003234324
3492.453,-0.003254878
3490.525,-0.003325633
3488.596,-0.003435704
3486.668,-0.003512902
3484.74,-0.003544642
3482.811,-0.003593667
3480.883,-0.003690062
3478.954,-0.003746116
3477.026,-0.003731958
3475.097,-0.00376634
3473.169,-0.003875394
3471.24,-0.003923657
3469.312,-0.003909786
3467.383,-0.003969916
3465.455,-0.00408794
3463.526,-0.004164077
3461.598,-0.0041716
3459.669,-0.004167015
3457.741,-0.004256369
3455.813,-0.004403215
3453.884,-0.004468482
3451.956,-0.00449139
3450.027,-0.004575929
3448.099,-0.004669771
3446.17,-0.004732606
3444.242,-0.004831348
3442.313,-0.004945327
3440.385,-0.005005801
3438.456,-0.00506055
3436.528,-0.005175033
3434.599,-0.005349235
3432.671,-0.00551248
3430.742,-0.00556883
3428.814,-0.005580749
3426.885,-0.00568047
3424.957,-0.005858894
3423.029,-0.00602126
3421.1,-0.006095789
3419.172,-0.00609628
3417.243,-0.006092191
3415.315,-0.006101051
3413.386,-0.006120021
3411.458,-0.006227307
3409.529,-0.006444111
3407.601,-0.006639993
3405.672,-0.006778749
3403.744,-0.006923435
3401.815,-0.007054836
3399.887,-0.007170201
3397.958,-0.007277022
3396.03,-0.007302676
3394.102,-0.007246935
3392.173,-0.007220786
3390.245,-0.007268633
3388.316,-0.007394702
3386.388,-0.007588125
3384.459,-0.007728612
3382.531,-0.007697743
3380.602,-0.007547178
3378.674,-0.007446563
3376.745,-0.007471225
3374.817,-0.007595418
3372.888,-0.007772776
3370.96,-0.007889261
3369.031,-0.00789615
3367.103,-0.007798516
3365.175,-0.007654594
3363.246,-0.007666962
3361.318,-0.007826146
3359.389,-0.007914551
3357.461,-0.007902187
3355.532,-0.00785336
3353.604,-0.007803103
3351.675,-0.007752144
3349.747,-0.007595407
3347.818,-0.007371737
3345.89,-0.007312288
3343.961,-0.007423177
3342.033,-0.007575012
3340.104,-0.00766609
3338.176,-0.007583639
3336.248,-0.007441989
3334.319,-0.007422763
3332.391,-0.007465166
3330.462,-0.007410389
3328.534,-0.007277192
3326.605,-0.007266231
3324.677,-0.007364113
3322.748,-0.00737416
3320.82,-0.007269585
3318.891,-0.007121276
3316.963,-0.006995303
3315.034,-0.006969509
3313.106,-0.006953051
3311.177,-0.006753769
3309.249,-0.006470391
3307.321,-0.006298508
3305.392,-0.00625353
3303.464,-0.00631152
3301.535,-0.006287663
3299.607,-0.006101912
3297.678,-0.00597415
3295.75,-0.005935952
3293.821,-0.005915648
3291.893,-0.005935694
3289.964,-0.005883891
3288.036,-0.005719447
3286.107,-0.005635834
3284.179,-0.005695922
3282.25,-0.005699694
3280.322,-0.005564544
3278.394,-0.005488176
3276.465,-0.005604879
3274.537,-0.005802704
3272.608,-0.00591709
3270.68,-0.005870106
3268.751,-0.005753488
3266.823,-0.005829321
3264.894,-0.006142621
3262.966,-0.006320917
3261.037,-0.006191819
3259.109,-0.006095175
3257.18,-0.006190575
3255.252,-0.006229595
3253.323,-0.006190536
3251.395,-0.006247231
3249.467,-0.006342863
3247.538,-0.006381745
3245.61,-0.006411646
3243.681,-0.0065283
3241.753,-0.00675123
3239.824,-0.006912935
3237.896,-0.00685931
3235.967,-0.00668539
3234.039,-0.006581796
3232.11,-0.006550611
3230.182,-0.00646517
3228.253,-0.006377198
3226.325,-0.006389661
3224.396,-0.006432796
3222.468,-0.006429442
3220.54,-0.006391542
3218.611,-0.006352857
3216.683,-0.006302696
3214.754,-0.00623899
3212.826,-0.006200228
3210.897,-0.006174336
3208.969,-0.006121307
3207.04,-0.006015775
3205.112,-0.005891107
3203.183,-0.005856118
3201.255,-0.005957127
3199.326,-0.006059813
3197.398,-0.005998836
3195.469,-0.005814456
3193.541,-0.005599093
3191.613,-0.005333899
3189.684,-0.005102678
3187.756,-0.005046644
3185.827,-0.005093176
3183.899,-0.005072914
3181.97,-0.004980036
3180.042,-0.004924549
3178.113,-0.004949319
3176.185,-0.004988784
3174.256,-0.004940947
3172.328,-0.004818599
3170.399,-0.00471533
3168.471,-0.004633549
3166.542,-0.004589483
3164.614,-0.004639378
3162.686,-0.00468926
3160.757,-0.004593415
3158.829,-0.004380442
3156.9,-0.004205741
3154.972,-0.004124622
3153.043,-0.004068719
3151.115,-0.004002309
3149.186,-0.003939956
3147.258,-0.003877187
3145.329,-0.003804442
3143.401,-0.00372337
3141.472,-0.003634015
3139.544,-0.003561589
3137.615,-0.003517324
3135.687,-0.003460581
3133.759,-0.00339229
3131.83,-0.003328112
3129.902,-0.00322638
3127.973,-0.003086931
3126.045,-0.002981064
3124.116,-0.002946799
3122.188,-0.002959396
3120.259,-0.002944629
3118.331,-0.002814709
3116.402,-0.00259279
3114.474,-0.002396197
3112.545,-0.002251631
3110.617,-0.002104615
3108.688,-0.001956033
3106.76,-0.001855514
3104.832,-0.001818115
3102.903,-0.001785099
3100.975,-0.001688431
3099.046,-0.00154403
3097.118,-0.001423353
3095.189,-0.001332376
3093.261,-0.001200666
3091.332,-0.001017333
3089.404,-0.000856687
3087.475,-0.000759677
3085.547,-0.000692602
3083.618,-0.000615796
3081.69,-0.000523512
3079.761,-0.000418819
3077.833,-0.000309077
3075.905,-0.00020929
3073.976,-0.00011198
3072.048,-1.12E-06
3070.119,0.000118993
3068.191,0.000240631
3066.262,0.000354576
3064.334,0.000447776
3062.405,0.000527946
3060.477,0.000588145
3058.548,0.000612249
3056.62,0.000626788
3054.691,0.000637059
3052.763,0.000625714
3050.834,0.000616863
3048.906,0.000641962
3046.978,0.000698782
3045.049,0.000741025
3043.121,0.00072977
3041.192,0.000679094
3039.264,0.00064039
3037.335,0.00065752
3035.407,0.000710854
3033.478,0.000761633
3031.55,0.000809603
3029.621,0.000848094
3027.693,0.000854073
3025.764,0.000829159
3023.836,0.000795247
3021.907,0.000770005
3019.979,0.000758143
3018.051,0.00075189
3016.122,0.00075618
3014.194,0.000781519
3012.265,0.000803789
3010.337,0.00080411
3008.408,0.000816281
3006.48,0.000868822
3004.551,0.000931767
3002.623,0.000969124
3000.694,0.000995792
2998.766,0.001051624
2996.837,0.001142155
2994.909,0.001237098
2992.98,0.001323887
2991.052,0.001406342
2989.124,0.001487353
2987.195,0.001581673
2985.267,0.00169284
2983.338,0.001812384
2981.41,0.001945164
2979.481,0.002084618
2977.553,0.002215639
2975.624,0.002344538
2973.696,0.002471938
2971.767,0.002596282
2969.839,0.002720598
2967.91,0.002814341
2965.982,0.002868206
2964.053,0.002917951
2962.125,0.002969978
2960.197,0.003007996
2958.268,0.003022823
2956.34,0.003009573
2954.411,0.002976281
2952.483,0.002937242
2950.554,0.002908291
2948.626,0.002905928
2946.697,0.002930549
2944.769,0.002974135
2942.84,0.003032152
2940.912,0.003090678
2938.983,0.003131194
2937.055,0.003150073
2935.126,0.003153069
2933.198,0.00314697
2931.27,0.003138215
2929.341,0.003113702
2927.413,0.003064914
2925.484,0.003015337
2923.556,0.002968704
2921.627,0.002907592
2919.699,0.002835629
2917.77,0.002761942
2915.842,0.002688917
2913.913,0.002616458
2911.985,0.002547883
2910.056,0.002489527
2908.128,0.002438465
2906.199,0.002390491
2904.271,0.002356535
2902.343,0.002334864
2900.414,0.002303873
2898.486,0.002272139
2896.557,0.002258017
2894.629,0.002248959
2892.7,0.002235217
2890.772,0.002223263
2888.843,0.002223435
2886.915,0.002242558
2884.986,0.002275769
2883.058,0.002315393
2881.129,0.002357654
2879.201,0.002392548
2877.272,0.002400027
2875.344,0.002368626
2873.416,0.002308133
2871.487,0.002242595
2869.559,0.002184808
2867.63,0.002119578
2865.702,0.002035739
2863.773,0.001948156
2861.845,0.001880649
2859.916,0.001835544
2857.988,0.001797654
2856.059,0.001763437
2854.131,0.001732815
2852.202,0.001691045
2850.274,0.0016363
2848.345,0.001585944
2846.417,0.001540529
2844.489,0.001489297
2842.56,0.001445127
2840.632,0.001427685
2838.703,0.001430186
2836.775,0.001428151
2834.846,0.001409506
2832.918,0.001374597
2830.989,0.001329452
2829.061,0.00129155
2827.132,0.001269331
2825.204,0.001253935
2823.275,0.001240573
2821.347,0.00123053
2819.418,0.001220693
2817.49,0.001212111
2815.562,0.001213029
2813.633,0.001217733
2811.705,0.001210195
2809.776,0.001188283
2807.848,0.00116113
2805.919,0.001136225
2803.991,0.001116938
2802.062,0.001105405
2800.134,0.001099421
2798.205,0.001092137
2796.277,0.001077402
2794.348,0.001053188
2792.42,0.001027994
2790.491,0.001009943
2788.563,0.000995843
2786.635,0.000983481
2784.706,0.000973305
2782.778,0.000965034
2780.849,0.000960572
2778.921,0.000955558
2776.992,0.000941287
2775.064,0.000919305
2773.135,0.000901402
2771.207,0.000893246
2769.278,0.000885766
2767.35,0.000867466
2765.421,0.000841062
2763.493,0.000821586
2761.564,0.00081297
2759.636,0.000807466
2757.708,0.00080768
2755.779,0.000808062
2753.851,0.000792141
2751.922,0.000765442
2749.994,0.000744266
2748.065,0.000733022
2746.137,0.000728146
2744.208,0.000717987
2742.28,0.000699902
2740.351,0.000685639
2738.423,0.000680881
2736.494,0.000682221
2734.566,0.000680419
2732.637,0.000668584
2730.709,0.000653903
2728.781,0.000638983
2726.852,0.000617959
2724.924,0.000596339
2722.995,0.000584902
2721.067,0.000577308
2719.138,0.000564354
2717.21,0.000553382
2715.281,0.000554574
2713.353,0.000563541
2711.424,0.000561613
2709.496,0.000547213
2707.567,0.000537991
2705.639,0.00053157
2703.71,0.000518867
2701.782,0.000507189
2699.854,0.000502374
2697.925,0.000504527
2695.997,0.000507308
2694.068,0.000498359
2692.14,0.000484018
2690.211,0.000481019
2688.283,0.000485541
2686.354,0.000482464
2684.426,0.000469939
2682.497,0.000461158
2680.569,0.000461474
2678.64,0.00046026
2676.712,0.000454651
2674.783,0.00045347
2672.855,0.000453329
2670.927,0.000441843
2668.998,0.000427585
2667.07,0.000428767
2665.141,0.000434766
2663.213,0.000428831
2661.284,0.000421366
2659.356,0.000417627
2657.427,0.00040472
2655.499,0.000382208
2653.57,0.000365358
2651.642,0.000358175
2649.713,0.000353761
2647.785,0.000355414
2645.856,0.00036539
2643.928,0.000370312
2642,0.000364908
2640.071,0.000355284
2638.143,0.000336592
2636.214,0.000309266
2634.286,0.000288358
2632.357,0.000271202
2630.429,0.000249769
2628.5,0.00023783
2626.572,0.000237648
2624.643,0.000233616
2622.715,0.000221332
2620.786,0.000207469
2618.858,0.000208431
2616.929,0.000228074
2615.001,0.000244122
2613.073,0.000244868
2611.144,0.000233179
2609.216,0.000208764
2607.287,0.000192582
2605.359,0.000208564
2603.43,0.000232646
2601.502,0.000240651
2599.573,0.000240934
2597.645,0.000224374
2595.716,0.000193829
2593.788,0.000181016
2591.859,0.000192107
2589.931,0.000205146
2588.002,0.000191278
2586.074,0.000145912
2584.146,0.000106343
2582.217,9.73E-05
2580.289,0.000104705
2578.36,0.000113097
2576.432,0.000108232
2574.503,7.80E-05
2572.575,5.16E-05
2570.646,5.60E-05
2568.718,6.55E-05
2566.789,4.59E-05
2564.861,1.85E-06
2562.932,-8.77E-06
2561.004,2.65E-05
2559.075,3.95E-05
2557.147,1.22E-05
2555.219,-2.71E-05
2553.29,-5.43E-05
2551.362,-5.25E-05
2549.433,-4.45E-05
2547.505,-5.11E-05
2545.576,-6.22E-05
2543.648,-6.63E-05
2541.719,-5.95E-05
2539.791,-5.93E-05
2537.862,-8.03E-05
2535.934,-7.86E-05
2534.005,-2.61E-05
2532.077,8.79E-06
2530.148,-1.50E-06
2528.22,-1.24E-05
2526.292,-2.30E-05
2524.363,-4.57E-05
2522.435,-6.79E-05
2520.506,-5.53E-05
2518.578,-1.18E-05
2516.649,-1.95E-05
2514.721,-9.41E-05
2512.792,-0.000146327
2510.864,-0.000136696
2508.935,-9.58E-05
2507.007,-3.75E-05
2505.078,1.65E-05
2503.15,6.95E-06
2501.221,-6.10E-05
2499.293,-9.42E-05
2497.365,-7.59E-05
2495.436,-7.27E-05
2493.508,-9.27E-05
2491.579,-0.00011508
2489.651,-0.000136377
2487.722,-0.000151198
2485.794,-0.000158572
2483.865,-0.000170023
2481.937,-0.000193336
2480.008,-0.000186873
2478.08,-0.000153207
2476.151,-0.000151779
2474.223,-0.000149822
2472.294,-0.000126008
2470.366,-0.000143735
2468.438,-0.000198399
2466.509,-0.000223208
2464.581,-0.00020933
2462.652,-0.000194773
2460.724,-0.000186681
2458.795,-0.000177578
2456.867,-0.000171961
2454.938,-0.000169321
2453.01,-0.000202569
2451.081,-0.000285697
2449.153,-0.000336097
2447.224,-0.000321972
2445.296,-0.000309952
2443.367,-0.000304885
2441.439,-0.000291193
2439.51,-0.000289502
2437.582,-0.000295258
2435.654,-0.000306845
2433.725,-0.000309364
2431.797,-0.000305495
2429.868,-0.000327149
2427.94,-0.000326738
2426.011,-0.000273056
2424.083,-0.000226096
2422.154,-0.000219894
2420.226,-0.000254462
2418.297,-0.00031531
2416.369,-0.000349583
2414.44,-0.00033157
2412.512,-0.000314991
2410.583,-0.000314739
2408.655,-0.00029885
2406.727,-0.000307584
2404.798,-0.000349486
2402.87,-0.000358884
2400.941,-0.000348077
2399.013,-0.000343171
2397.084,-0.000327739
2395.156,-0.000325559
2393.227,-0.000343821
2391.299,-0.000353273
2389.37,-0.00035571
2387.442,-0.000335612
2385.513,-0.000243912
2383.585,-4.51E-05
2381.656,0.000288365
2379.728,0.000769488
2377.8,0.001376922
2375.871,0.002069997
2373.943,0.002791901
2372.014,0.003472427
2370.086,0.004052109
2368.157,0.004512205
2366.229,0.00488078
2364.3,0.005187353
2362.372,0.005429467
2360.443,0.005558963
2358.515,0.00550636
2356.586,0.005229513
2354.658,0.00469086
2352.729,0.003857503
2350.801,0.002952646
2348.873,0.002514798
2346.944,0.002824662
2345.016,0.003509154
2343.087,0.003962905
2341.159,0.004074881
2339.23,0.004031155
2337.302,0.003931972
2335.373,0.003827924
2333.445,0.003749337
2331.516,0.003672545
2329.588,0.003526228
2327.659,0.003312071
2325.731,0.003127163
2323.802,0.002981306
2321.874,0.00276503
2319.946,0.002458861
2318.017,0.002153239
2316.089,0.001879026
2314.16,0.001628636
2312.232,0.001389207
2310.303,0.001135118
2308.375,0.000851953
2306.446,0.000568492
2304.518,0.000348498
2302.589,0.000217957
2300.661,0.00014933
2298.732,9.09E-05
2296.804,-8.52E-06
2294.875,-0.000130584
2292.947,-0.000212771
2291.019,-0.000249995
2289.09,-0.000257348
2287.162,-0.000230647
2285.233,-0.000201387
2283.305,-0.000220134
2281.376,-0.00030049
2279.448,-0.000440522
2277.519,-0.000623562
2275.591,-0.000715344
2273.662,-0.000583665
2271.734,-0.000351418
2269.805,-0.000170613
2267.877,-2.60E-05
2265.948,7.92E-06
2264.02,-0.000191791
2262.092,-0.000527542
2260.163,-0.000786514
2258.235,-0.000847736
2256.306,-0.000795941
2254.378,-0.000774195
2252.449,-0.000684334
2250.521,-0.00050766
2248.592,-0.000492196
2246.664,-0.000606946
2244.735,-0.000558575
2242.807,-0.000402377
2240.878,-0.000426376
2238.95,-0.000587254
2237.021,-0.000744011
2235.093,-0.000902883
2233.165,-0.000965896
2231.236,-0.000945803
2229.308,-0.000977058
2227.379,-0.000996205
2225.451,-0.000996592
2223.522,-0.001124386
2221.594,-0.001197011
2219.665,-0.000984359
2217.737,-0.000791434
2215.808,-0.000829331
2213.88,-0.001066531
2211.951,-0.001680034
2210.023,-0.002420354
2208.094,-0.002416382
2206.166,-0.001464842
2204.238,-0.000585257
2202.309,-0.000456091
2200.381,-0.000474344
2198.452,-0.00020839
2196.524,-0.000338048
2194.595,-0.001385022
2192.667,-0.002429895
