Wavenumbers [1/cm],Absorbance
3997.712,0.000256554
3995.783,0.000267433
3993.855,0.000274245
3991.926,0.000270645
3989.998,0.000266733
3988.069,0.000269039
3986.141,0.000273235
3984.212,0.000275644
3982.284,0.000281187
3980.355,0.000286238
3978.427,0.000281446
3976.499,0.000272509
3974.57,0.000265309
3972.642,0.000263392
3970.713,0.000271784
3968.785,0.000278881
3966.856,0.000273338
3964.928,0.000267951
3962.999,0.000275825
3961.071,0.000285772
3959.142,0.000275514
3957.214,0.000257745
3955.285,0.000262796
3953.357,0.000272561
3951.428,0.000259818
3949.5,0.000243293
3947.572,0.000239459
3945.643,0.000237154
3943.715,0.000240703
3941.786,0.000258108
3939.858,0.000262382
3937.929,0.000240495
3936.001,0.000223194
3934.072,0.00023143
3932.144,0.000250674
3930.215,0.00025974
3928.287,0.000257797
3926.358,0.000252332
3924.43,0.000243888
3922.501,0.000236248
3920.573,0.000233528
3918.645,0.000233554
3916.716,0.000231845
3914.788,0.000228892
3912.859,0.000227416
3910.931,0.000227416
3909.002,0.000232803
3907.074,0.000242231
3905.145,0.000240185
3903.217,0.000219102
3901.288,0.000197788
3899.36,0.000201414
3897.431,0.000221174
3895.503,0.000225189
3893.574,0.000209105
3891.646,0.000195328
3889.718,0.000191676
3887.789,0.000189863
3885.861,0.000189138
3883.932,0.000192039
3882.004,0.000197762
3880.075,0.000208846
3878.147,0.000218817
3876.218,0.00021602
3874.29,0.0002039
3872.361,0.000193178
3870.433,0.000192557
3868.504,0.000203071
3866.576,0.000209442
3864.647,0.000201595
3862.719,0.000187274
3860.791,0.000171425
3858.862,0.00015959
3856.934,0.000156095
3855.005,0.0001519
3853.077,0.000151744
3851.148,0.000170985
3849.22,0.000193903
3847.291,0.00020074
3845.363,0.000200663
3843.434,0.000201543
3841.506,0.000197374
3839.577,0.00019424
3837.649,0.000204858
3835.72,0.000212654
3833.792,0.000194551
3831.864,0.000163242
3829.935,0.000140584
3828.007,0.000130174
3826.078,0.000131184
3824.15,0.000143069
3822.221,0.000161481
3820.293,0.000177769
3818.364,0.000178624
3816.436,0.000163786
3814.507,0.000151071
3812.579,0.000150087
3810.65,0.000153945
3808.722,0.000153194
3806.793,0.000146798
3804.865,0.000138693
3802.937,0.000132945
3801.008,0.000134162
3799.08,0.00014092
3797.151,0.000146073
3795.223,0.000149232
3793.294,0.000154178
3791.366,0.000153065
3789.437,0.00014004
3787.509,0.000130589
3785.58,0.000136777
3783.652,0.000149983
3781.723,0.000156897
3779.795,0.000158192
3777.866,0.000159332
3775.938,0.000152676
3774.01,0.000135301
3772.081,0.000120335
3770.153,0.000118289
3768.224,0.000123261
3766.296,0.000123312
3764.367,0.000115985
3762.439,0.000102288
3760.51,8.94E-05
3758.582,8.73E-05
3756.653,9.10E-05
3754.725,8.56E-05
3752.796,7.08E-05
3750.868,5.51E-05
3748.939,4.02E-05
3747.011,1.72E-05
3745.083,-3.12E-05
3743.154,-9.60E-05
3741.226,-0.00015948
3739.297,-0.000239586
3737.369,-0.000339853
3735.44,-0.000431667
3733.512,-0.000498743
3731.583,-0.00054218
3729.655,-0.00057098
3727.726,-0.000592074
3725.798,-0.000591092
3723.869,-0.000555675
3721.941,-0.000499519
3720.012,-0.000426547
3718.084,-0.00033049
3716.156,-0.000240621
3714.227,-0.000217853
3712.299,-0.000288895
3710.37,-0.000414547
3708.442,-0.000542903
3706.513,-0.000631831
3704.585,-0.00065985
3702.656,-0.00064429
3700.728,-0.000618183
3698.799,-0.00062175
3696.871,-0.000660263
3694.942,-0.000682284
3693.014,-0.000667293
3691.085,-0.000650545
3689.157,-0.00065132
3687.229,-0.00065773
3685.3,-0.000658506
3683.372,-0.000660728
3681.443,-0.0006843
3679.515,-0.000724461
3677.586,-0.00075635
3675.658,-0.000775834
3673.729,-0.000791389
3671.801,-0.000816504
3669.872,-0.000859495
3667.944,-0.000910128
3666.015,-0.000951147
3664.087,-0.000979558
3662.158,-0.001016439
3660.23,-0.001064885
3658.302,-0.001102222
3656.373,-0.001126751
3654.445,-0.00116522
3652.516,-0.001225781
3650.588,-0.001274668
3648.659,-0.001300684
3646.731,-0.001328556
3644.802,-0.001370207
3642.874,-0.001424496
3640.945,-0.001481358
3639.017,-0.001551522
3637.088,-0.001652261
3635.16,-0.001740291
3633.231,-0.00177788
3631.303,-0.001809589
3629.375,-0.001867019
3627.446,-0.001905731
3625.518,-0.001917019
3623.589,-0.001942378
3621.661,-0.001937173
3619.732,-0.001852069
3617.804,-0.001753594
3615.875,-0.001690889
3613.947,-0.001661132
3612.018,-0.001678563
3610.09,-0.001732865
3608.161,-0.00180268
3606.233,-0.001885989
3604.304,-0.001975312
3602.376,-0.002037667
3600.448,-0.002029783
3598.519,-0.00197088
3596.591,-0.001935523
3594.662,-0.001937327
3592.734,-0.001932482
3590.805,-0.001917174
3588.877,-0.001898824
3586.948,-0.001858204
3585.02,-0.001825674
3583.091,-0.001840212
3581.163,-0.001840728
3579.234,-0.001777364
3577.306,-0.001713992
3575.377,-0.001708165
3573.449,-0.00175576
3571.521,-0.001818869
3569.592,-0.00183449
3567.664,-0.00180005
3565.735,-0.001776591
3563.807,-0.001759679
3561.878,-0.001719046
3559.95,-0.001708577
3558.021,-0.001732659
3556.093,-0.001718014
3554.164,-0.001698882
3552.236,-0.001726987
3550.307,-0.001751429
3548.379,-0.001749933
3546.45,-0.001758802
3544.522,-0.001789739
3542.594,-0.001826396
3540.665,-0.001850729
3538.737,-0.001826705
3536.808,-0.00176071
3534.88,-0.001748387
3532.951,-0.001822942
3531.023,-0.001909391
3529.094,-0.001954902
3527.166,-0.001967426
3525.237,-0.001972219
3523.309,-0.00195918
3521.38,-0.001932173
3519.452,-0.001949594
3517.523,-0.00201489
3515.595,-0.002070851
3513.667,-0.002104702
3511.738,-0.002148596
3509.81,-0.002209536
3507.881,-0.00225754
3505.953,-0.002282467
3504.024,-0.002326549
3502.096,-0.002412589
3500.167,-0.002478382
3498.239,-0.002491509
3496.31,-0.002492281
3494.382,-0.002467983
3492.453,-0.00243761
3490.525,-0.002497531
3488.596,-0.002638653
3486.668,-0.002773659
3484.74,-0.002872262
3482.811,-0.002912479
3480.883,-0.002877611
3478.954,-0.002871954
3477.026,-0.002960766
3475.097,-0.003018404
3473.169,-0.003038763
3471.24,-0.003121372
3469.312,-0.003185259
3467.383,-0.003174569
3465.455,-0.003142498
3463.526,-0.003106209
3461.598,-0.003123583
3459.669,-0.003222313
3457.741,-0.003315112
3455.813,-0.003395768
3453.884,-0.003579167
3451.956,-0.003852504
3450.027,-0.004052842
3448.099,-0.004096847
3446.17,-0.003993237
3444.242,-0.003840496
3442.313,-0.003826486
3440.385,-0.004007036
3438.456,-0.004254933
3436.528,-0.004412499
3434.599,-0.0044413
3432.671,-0.00442854
3430.742,-0.004462925
3428.814,-0.004630507
3426.885,-0.004837757
3424.957,-0.004842467
3423.029,-0.004715273
3421.1,-0.004724337
3419.172,-0.004935944
3417.243,-0.005197737
3415.315,-0.005298554
3413.386,-0.005289655
3411.458,-0.005421385
3409.529,-0.005674301
3407.601,-0.005792479
3405.672,-0.005706084
3403.744,-0.005623453
3401.815,-0.005756104
3399.887,-0.006014136
3397.958,-0.006155242
3396.03,-0.006250377
3394.102,-0.006482715
3392.173,-0.006745311
3390.245,-0.00686437
3388.316,-0.0068421
3386.388,-0.006812897
3384.459,-0.006896575
3382.531,-0.007039331
3380.602,-0.007091898
3378.674,-0.007094954
3376.745,-0.007181837
3374.817,-0.007214528
3372.888,-0.007095718
3370.96,-0.007033269
3369.031,-0.007103969
3367.103,-0.007179494
3365.175,-0.007237441
3363.246,-0.007339669
3361.318,-0.007396373
3359.389,-0.007263713
3357.461,-0.007109622
3355.532,-0.007238918
3353.604,-0.007505178
3351.675,-0.007529908
3349.747,-0.007407316
3347.818,-0.007435308
3345.89,-0.00752599
3343.961,-0.007492406
3342.033,-0.007407723
3340.104,-0.007382019
3338.176,-0.007404771
3336.248,-0.007500548
3334.319,-0.007642495
3332.391,-0.007633796
3330.462,-0.007473018
3328.534,-0.007446962
3326.605,-0.007610243
3324.677,-0.007648599
3322.748,-0.007419073
3320.82,-0.007176235
3318.891,-0.007144814
3316.963,-0.007277001
3315.034,-0.007405178
3313.106,-0.007421974
3311.177,-0.007386295
3309.249,-0.007343996
3307.321,-0.007247166
3305.392,-0.007173231
3303.464,-0.007178272
3301.535,-0.007180615
3299.607,-0.007165134
3297.678,-0.00710947
3295.75,-0.007005914
3293.821,-0.006921187
3291.893,-0.006785171
3289.964,-0.00661959
3288.036,-0.006657728
3286.107,-0.006814324
3284.179,-0.006750561
3282.25,-0.006475982
3280.322,-0.006314469
3278.394,-0.00641166
3276.465,-0.006617551
3274.537,-0.006760705
3272.608,-0.006777678
3270.68,-0.006747452
3268.751,-0.0067867
3266.823,-0.0068183
3264.894,-0.006742405
3262.966,-0.006632185
3261.037,-0.006675063
3259.109,-0.00684526
3257.18,-0.006865797
3255.252,-0.006830327
3253.323,-0.007017936
3251.395,-0.007295126
3249.467,-0.007454189
3247.538,-0.007529959
3245.61,-0.00759025
3243.681,-0.0075439
3241.753,-0.007323176
3239.824,-0.007132694
3237.896,-0.007145527
3235.967,-0.007238867
3234.039,-0.007264782
3232.11,-0.00723907
3230.182,-0.00723515
3228.253,-0.00725633
3226.325,-0.007289373
3224.396,-0.00729818
3222.468,-0.007166662
3220.54,-0.006985179
3218.611,-0.006984517
3216.683,-0.007046004
3214.754,-0.006987319
3212.826,-0.006925518
3210.897,-0.006918639
3208.969,-0.006824313
3207.04,-0.006604651
3205.112,-0.006447724
3203.183,-0.006482256
3201.255,-0.006576095
3199.326,-0.00659741
3197.398,-0.006638864
3195.469,-0.006775232
3193.541,-0.006848266
3191.613,-0.006737359
3189.684,-0.006513164
3187.756,-0.00627482
3185.827,-0.006178569
3183.899,-0.006273902
3181.97,-0.00632503
3180.042,-0.006208375
3178.113,-0.006084593
3176.185,-0.006107821
3174.256,-0.006257827
3172.328,-0.006325745
3170.399,-0.006203475
3168.471,-0.006094599
3166.542,-0.006091842
3164.614,-0.006034712
3162.686,-0.005909603
3160.757,-0.005838863
3158.829,-0.00580571
3156.9,-0.005751404
3154.972,-0.005759936
3153.043,-0.005851275
3151.115,-0.005834623
3149.186,-0.005652123
3147.258,-0.005503287
3145.329,-0.005502009
3143.401,-0.005547401
3141.472,-0.005526239
3139.544,-0.005433093
3137.615,-0.00531983
3135.687,-0.005244594
3133.759,-0.00520935
3131.83,-0.005154815
3129.902,-0.005053863
3127.973,-0.004952324
3126.045,-0.004903746
3124.116,-0.004890846
3122.188,-0.004853833
3120.259,-0.004742773
3118.331,-0.004584148
3116.402,-0.004466409
3114.474,-0.004370422
3112.545,-0.004241808
3110.617,-0.004105822
3108.688,-0.003966664
3106.76,-0.003838905
3104.832,-0.003738313
3102.903,-0.003633591
3100.975,-0.003518676
3099.046,-0.003376145
3097.118,-0.003197697
3095.189,-0.003023596
3093.261,-0.002857964
3091.332,-0.002712386
3089.404,-0.002622186
3087.475,-0.002545555
3085.547,-0.002423092
3083.618,-0.002277419
3081.69,-0.002142671
3079.761,-0.001995359
3077.833,-0.001822426
3075.905,-0.001660409
3073.976,-0.001548633
3072.048,-0.001480017
3070.119,-0.001427386
3068.191,-0.001392862
3066.262,-0.001344969
3064.334,-0.001232647
3062.405,-0.001112447
3060.477,-0.001072476
3058.548,-0.00108673
3056.62,-0.001070566
3054.691,-0.001030952
3052.763,-0.001030643
3050.834,-0.001043296
3048.906,-0.001003939
3046.978,-0.000931826
3045.049,-0.00089995
3043.121,-0.000897936
3041.192,-0.000863319
3039.264,-0.000824875
3037.335,-0.000821775
3035.407,-0.000829629
3033.478,-0.000840118
3031.55,-0.000846474
3029.621,-0.000823015
3027.693,-0.000782914
3025.764,-0.000755162
3023.836,-0.000725082
3021.907,-0.000688642
3019.979,-0.000683524
3018.051,-0.000699703
3016.122,-0.000677373
3014.194,-0.000612651
3012.265,-0.000552107
3010.337,-0.000512499
3008.408,-0.000491141
3006.48,-0.000475627
3004.551,-0.000429029
3002.623,-0.000347768
3000.694,-0.000273529
2998.766,-0.000223908
2996.837,-0.000164811
2994.909,-6.99E-05
2992.98,3.34E-05
2991.052,0.000131495
2989.124,0.000250726
2987.195,0.000383541
2985.267,0.000511186
2983.338,0.000645947
2981.41,0.000787492
2979.481,0.000919562
2977.553,0.001047002
2975.624,0.001185278
2973.696,0.001336294
2971.767,0.001488844
2969.839,0.001635055
2967.91,0.0017796
2965.982,0.001923361
2964.053,0.002057728
2962.125,0.002162504
2960.197,0.00220642
2958.268,0.002199266
2956.34,0.00218532
2954.411,0.002159513
2952.483,0.002102596
2950.554,0.002048417
2948.626,0.002026726
2946.697,0.00203081
2944.769,0.002067169
2942.84,0.002152307
2940.912,0.00227428
2938.983,0.002405789
2937.055,0.002526636
2935.126,0.002628504
2933.198,0.002716539
2931.27,0.002799798
2929.341,0.002872753
2927.413,0.002914135
2925.484,0.002914708
2923.556,0.00287562
2921.627,0.002790497
2919.699,0.002651032
2917.77,0.002461678
2915.842,0.002261061
2913.913,0.002093986
2911.985,0.001964704
2910.056,0.001846977
2908.128,0.001724162
2906.199,0.001613749
2904.271,0.001547889
2902.343,0.001526197
2900.414,0.001516014
2898.486,0.001496429
2896.557,0.001469571
2894.629,0.001443234
2892.7,0.001427651
2890.772,0.001427703
2888.843,0.001430898
2886.915,0.001419393
2884.986,0.00139724
2883.058,0.001381814
2881.129,0.00137714
2879.201,0.001382438
2877.272,0.001400356
2875.344,0.001423106
2873.416,0.001424041
2871.487,0.001384204
2869.559,0.001324662
2867.63,0.001274786
2865.702,0.001237688
2863.773,0.001228965
2861.845,0.001272034
2859.916,0.001347953
2857.988,0.001426015
2856.059,0.001489052
2854.131,0.001507546
2852.202,0.001462402
2850.274,0.001366441
2848.345,0.001247423
2846.417,0.00112976
2844.489,0.001024921
2842.56,0.000933571
2840.632,0.000856998
2838.703,0.000794649
2836.775,0.000739804
2834.846,0.000695388
2832.918,0.000671017
2830.989,0.000663109
2829.061,0.000662409
2827.132,0.000668554
2825.204,0.000683928
2823.275,0.000694506
2821.347,0.000684706
2819.418,0.000666246
2817.49,0.000656913
2815.562,0.000651572
2813.633,0.000639932
2811.705,0.000624093
2809.776,0.000609576
2807.848,0.000601074
2805.919,0.000600167
2803.991,0.000603018
2802.062,0.000605429
2800.134,0.000601229
2798.205,0.000588424
2796.277,0.000581322
2794.348,0.000581996
2792.42,0.000570021
2790.491,0.000547652
2788.563,0.000534589
2786.635,0.000532024
2784.706,0.000532179
2782.778,0.000533138
2780.849,0.000525648
2778.921,0.000503982
2776.992,0.000489158
2775.064,0.000495688
2773.135,0.00049828
2771.207,0.000482031
2769.278,0.000462725
2767.35,0.000446452
2765.421,0.000434325
2763.493,0.000435802
2761.564,0.000440025
2759.636,0.000428106
2757.708,0.000414814
2755.779,0.000413104
2753.851,0.000409321
2751.922,0.000401366
2749.994,0.000396547
2748.065,0.000394941
2746.137,0.000393749
2744.208,0.000390406
2742.28,0.000386779
2740.351,0.000383955
2738.423,0.000377996
2736.494,0.000368047
2734.566,0.000357451
2732.637,0.000344601
2730.709,0.000328384
2728.781,0.000312789
2726.852,0.000300562
2724.924,0.000299993
2722.995,0.000304914
2721.067,0.000298801
2719.138,0.000289787
2717.21,0.000286316
2715.281,0.000281783
2713.353,0.000278182
2711.424,0.000277897
2709.496,0.000272095
2707.567,0.000257072
2705.639,0.000243526
2703.71,0.000240418
2701.782,0.000245779
2699.854,0.000255803
2697.925,0.000260931
2695.997,0.00025399
2694.068,0.000244096
2692.14,0.000238605
2690.211,0.000235031
2688.283,0.000229721
2686.354,0.000224956
2684.426,0.000224645
2682.497,0.000219128
2680.569,0.000204521
2678.64,0.000196933
2676.712,0.000200248
2674.783,0.000204884
2672.855,0.000207914
2670.927,0.000212809
2668.998,0.000219439
2667.07,0.000223557
2665.141,0.000219491
2663.213,0.00020434
2661.284,0.0001902
2659.356,0.00019266
2657.427,0.000199549
2655.499,0.000191106
2653.57,0.000176656
2651.642,0.000175983
2649.713,0.000191003
2647.785,0.000210996
2645.856,0.000219439
2643.928,0.00020592
2642,0.00017808
2640.071,0.000155395
2638.143,0.000156561
2636.214,0.000177511
2634.286,0.000188076
2632.357,0.000162154
2630.429,0.000115389
2628.5,9.12E-05
2626.572,9.68E-05
2624.643,0.000110029
2622.715,0.000122613
2620.786,0.000134602
2618.858,0.000143665
2616.929,0.000138357
2615.001,0.000119377
2613.073,0.000114483
2611.144,0.000122769
2609.216,0.000118393
2607.287,0.000104022
2605.359,8.70E-05
2603.43,6.52E-05
2601.502,4.63E-05
2599.573,3.74E-05
2597.645,3.67E-05
2595.716,2.79E-05
2593.788,1.55E-05
2591.859,3.12E-05
2589.931,6.85E-05
2588.002,7.68E-05
2586.074,3.68E-05
2584.146,3.81E-06
2582.217,1.48E-05
2580.289,3.42E-05
2578.36,5.02E-05
2576.432,6.05E-05
2574.503,4.65E-05
2572.575,2.82E-05
2570.646,1.47E-05
2568.718,6.29E-06
2566.789,3.74E-05
2564.861,9.52E-05
2562.932,0.000120283
2561.004,9.41E-05
2559.075,4.26E-05
2557.147,1.12E-05
2555.219,1.55E-07
2553.29,-2.46E-05
2551.362,-1.44E-05
2549.433,4.45E-05
2547.505,6.16E-05
2545.576,3.03E-05
2543.648,-2.85E-06
2541.719,-2.76E-05
2539.791,-3.03E-05
2537.862,-2.94E-05
2535.934,-5.03E-05
2534.005,-6.39E-05
2532.077,-3.05E-05
2530.148,1.32E-05
2528.22,1.22E-05
2526.292,-7.40E-06
2524.363,-1.67E-05
2522.435,-3.88E-05
2520.506,-8.77E-05
2518.578,-0.000133706
2516.649,-0.000146542
2514.721,-0.000125374
2512.792,-8.11E-05
2510.864,-4.16E-05
2508.935,-1.20E-05
2507.007,1.42E-05
2505.078,9.06E-06
2503.15,-3.03E-05
2501.221,-5.93E-05
2499.293,-5.48E-05
2497.365,-6.03E-05
2495.436,-9.12E-05
2493.508,-7.99E-05
2491.579,-2.57E-05
2489.651,3.11E-06
2487.722,-1.37E-05
2485.794,-5.14E-05
2483.865,-6.80E-05
2481.937,-6.72E-05
2480.008,-9.54E-05
2478.08,-0.00012998
2476.151,-0.000128841
2474.223,-0.000113935
2472.294,-0.000112382
2470.366,-0.000143126
2468.438,-0.000188668
2466.509,-0.000190634
2464.581,-0.000175109
2462.652,-0.000207401
2460.724,-0.000251384
2458.795,-0.000250194
2456.867,-0.000207918
2454.938,-0.000135466
2453.01,-5.14E-05
2451.081,2.59E-07
2449.153,-4.14E-06
2447.224,-4.99E-05
2445.296,-9.09E-05
2443.367,-9.18E-05
2441.439,-8.34E-05
2439.51,-0.000100944
2437.582,-0.000118697
2435.654,-0.000115695
2433.725,-0.000111399
2431.797,-0.000119059
2429.868,-0.00013412
2427.94,-0.000147059
2426.011,-0.000162275
2424.083,-0.000177645
2422.154,-0.000170917
2420.226,-0.000161912
2418.297,-0.000182872
2416.369,-0.000191566
2414.44,-0.000152752
2412.512,-0.000109846
2410.583,-8.60E-05
2408.655,-7.20E-05
2406.727,-7.41E-05
2404.798,-7.48E-05
2402.87,-7.94E-05
2400.941,-0.000124752
2399.013,-0.00018608
2397.084,-0.000217853
2395.156,-0.000216663
2393.227,-0.000193791
2391.299,-0.000182872
2389.37,-0.000233532
2387.442,-0.000359873
2385.513,-0.000592953
2383.585,-0.001038803
2381.656,-0.001821137
2379.728,-0.002989406
2377.8,-0.004466665
2375.871,-0.006084695
2373.943,-0.007672913
2372.014,-0.009161729
2370.086,-0.010563
2368.157,-0.01183021
2366.229,-0.01288315
2364.3,-0.01368289
2362.372,-0.01420625
2360.443,-0.01439651
2358.515,-0.01418962
2356.586,-0.01355665
2354.658,-0.0123919
2352.729,-0.01050626
2350.801,-0.00837119
2348.873,-0.007330353
2346.944,-0.008085185
2345.016,-0.009701812
2343.087,-0.01071769
2341.159,-0.01092595
2339.23,-0.01081421
2337.302,-0.0105909
2335.373,-0.0103524
2333.445,-0.01019551
2331.516,-0.01005055
2329.588,-0.009721101
2327.659,-0.009227521
2325.731,-0.008786097
2323.802,-0.008432533
2321.874,-0.007972559
2319.946,-0.007276492
2318.017,-0.006449611
2316.089,-0.005688455
2314.16,-0.005075304
2312.232,-0.004517136
2310.303,-0.003942193
2308.375,-0.003399723
2306.446,-0.002904714
2304.518,-0.002441317
2302.589,-0.002073427
2300.661,-0.001833356
2298.732,-0.001647464
2296.804,-0.001454063
2294.875,-0.001262795
2292.947,-0.001099021
2291.019,-0.000941435
2289.09,-0.000802241
2287.162,-0.000736504
2285.233,-0.000687711
2283.305,-0.000589955
2281.376,-0.000522272
2279.448,-0.000539077
2277.519,-0.000566636
2275.591,-0.000547299
2273.662,-0.000476093
2271.734,-0.000409168
2269.805,-0.000453441
2267.877,-0.000575271
2265.948,-0.000605568
2264.02,-0.000523978
2262.092,-0.000544403
2260.163,-0.00068797
2258.235,-0.00063607
2256.306,-0.000374978
2254.378,-0.000278185
2252.449,-0.000386461
2250.521,-0.00043927
2248.592,-0.000403323
2246.664,-0.000319419
2244.735,-0.000256299
2242.807,-0.000380254
2240.878,-0.000599002
2238.95,-0.000635915
2237.021,-0.000423392
2235.093,-0.00020621
2233.165,-0.000137743
2231.236,-6.45E-05
2229.308,-4.14E-07
2227.379,-6.40E-05
2225.451,-0.000166829
2223.522,-0.000281341
2221.594,-0.000370839
2219.665,-0.000247451
2217.737,-5.97E-05
2215.808,-0.00017987
2213.88,-0.000484108
2211.951,-0.00057827
2210.023,-0.000502311
2208.094,-0.00049502
2206.166,-0.000371046
2204.238,2.64E-05
2202.309,0.000414814
2200.381,0.000395277
2198.452,-0.000318591
2196.524,-0.00099521
2194.595,-0.000597606
2192.667,0.000234487
2190.738,0.00061515
2188.81,0.000893622
2186.881,0.001104742
2184.953,0.000690798
2183.024,-6.22E-05
2181.096,-0.000477747
2179.167,-0.000713866
2177.239,-0.00082472
2175.311,-0.000401875
2173.382,-9.99E-05
