Wavenumbers [1/cm],Absorbance
3997.712,0.000148326
3995.783,0.000152366
3993.855,0.000152676
3991.926,0.000149362
3989.998,0.000150864
3988.069,0.000157959
3986.141,0.0001707
3984.212,0.000182379
3982.284,0.000186212
3980.355,0.000179064
3978.427,0.00016407
3976.499,0.000156017
3974.57,0.000155654
3972.642,0.000152107
3970.713,0.000152573
3968.785,0.000167126
3966.856,0.000182716
3964.928,0.000181214
3962.999,0.000169871
3961.071,0.000162568
3959.142,0.000156846
3957.214,0.00014641
3955.285,0.000134576
3953.357,0.000125746
3951.428,0.00011614
3949.5,0.000109822
3947.572,0.000118574
3945.643,0.000134188
3943.715,0.000145296
3941.786,0.000150864
3939.858,0.000148818
3937.929,0.000145115
3936.001,0.000146255
3934.072,0.000144028
3932.144,0.000132997
3930.215,0.000123053
3928.287,0.00012383
3926.358,0.000130226
3924.43,0.000126756
3922.501,0.000113085
3920.573,0.000105317
3918.645,0.000103634
3916.716,0.000101071
3914.788,0.000102236
3912.859,0.000103841
3910.931,0.00010353
3909.002,0.000111609
3907.074,0.000122536
3905.145,0.000121267
3903.217,0.000108113
3901.288,9.09E-05
3899.36,8.40E-05
3897.431,9.20E-05
3895.503,9.72E-05
3893.574,9.43E-05
3891.646,9.69E-05
3889.718,0.000102961
3887.789,0.000101459
3885.861,9.17E-05
3883.932,8.23E-05
3882.004,8.53E-05
3880.075,9.30E-05
3878.147,8.69E-05
3876.218,7.78E-05
3874.29,7.61E-05
3872.361,6.98E-05
3870.433,6.69E-05
3868.504,8.19E-05
3866.576,0.000102106
3864.647,0.000110159
3862.719,0.00010221
3860.791,8.13E-05
3858.862,6.77E-05
3856.934,7.15E-05
3855.005,6.73E-05
3853.077,4.98E-05
3851.148,4.40E-05
3849.22,5.10E-05
3847.291,5.61E-05
3845.363,5.65E-05
3843.434,5.38E-05
3841.506,5.45E-05
3839.577,6.63E-05
3837.649,8.56E-05
3835.72,9.53E-05
3833.792,7.81E-05
3831.864,4.60E-05
3829.935,2.97E-05
3828.007,3.26E-05
3826.078,3.93E-05
3824.15,4.98E-05
3822.221,6.70E-05
3820.293,7.25E-05
3818.364,5.27E-05
3816.436,2.72E-05
3814.507,2.26E-05
3812.579,3.77E-05
3810.65,5.36E-05
3808.722,5.12E-05
3806.793,3.25E-05
3804.865,2.00E-05
3802.937,1.87E-05
3801.008,1.94E-05
3799.08,2.07E-05
3797.151,1.73E-05
3795.223,1.44E-05
3793.294,2.88E-05
3791.366,4.82E-05
3789.437,4.57E-05
3787.509,2.56E-05
3785.58,1.41E-05
3783.652,1.24E-05
3781.723,8.10E-06
3779.795,1.17E-05
3777.866,2.23E-05
3775.938,1.51E-05
3774.01,-1.82E-05
3772.081,-4.74E-05
3770.153,-3.27E-05
3768.224,3.42E-06
3766.296,8.72E-06
3764.367,-1.16E-05
3762.439,-2.87E-05
3760.51,-3.23E-05
3758.582,-2.25E-05
3756.653,-1.23E-05
3754.725,-1.85E-05
3752.796,-3.88E-05
3750.868,-5.57E-05
3748.939,-6.50E-05
3747.011,-8.70E-05
3745.083,-0.000138985
3743.154,-0.000207194
3741.226,-0.000278961
3739.297,-0.000364322
3737.369,-0.000463319
3735.44,-0.000563327
3733.512,-0.000653233
3731.583,-0.000729992
3729.655,-0.000791493
3727.726,-0.0008133
3725.798,-0.000782862
3723.869,-0.000728493
3721.941,-0.000668534
3720.012,-0.000589593
3718.084,-0.000489745
3716.156,-0.000397323
3714.227,-0.000366236
3712.299,-0.000440511
3710.37,-0.000586594
3708.442,-0.000722394
3706.513,-0.00080343
3704.585,-0.00083769
3702.656,-0.000844924
3700.728,-0.000835416
3698.799,-0.000832936
3696.871,-0.000849729
3694.942,-0.000861872
3693.014,-0.000863009
3691.085,-0.000866419
3689.157,-0.000871482
3687.229,-0.000869725
3685.3,-0.000854793
3683.372,-0.000843891
3681.443,-0.000865282
3679.515,-0.000909353
3677.586,-0.000950476
3675.658,-0.000980953
3673.729,-0.00100585
3671.801,-0.001038545
3669.872,-0.001076092
3667.944,-0.001120451
3666.015,-0.001174565
3664.087,-0.001215249
3662.158,-0.001246225
3660.23,-0.001283908
3658.302,-0.001323447
3656.373,-0.001362259
3654.445,-0.001410873
3652.516,-0.001480739
3650.588,-0.001552451
3648.659,-0.001602333
3646.731,-0.001632507
3644.802,-0.001662885
3642.874,-0.001716725
3640.945,-0.001777725
3639.017,-0.001839903
3637.088,-0.001949697
3635.16,-0.002083474
3633.231,-0.002151738
3631.303,-0.002164617
3629.375,-0.002184553
3627.446,-0.002211544
3625.518,-0.002236577
3623.589,-0.002255325
3621.661,-0.002224679
3619.732,-0.002123043
3617.804,-0.002013447
3615.875,-0.001943409
3613.947,-0.001897278
3612.018,-0.001893102
3610.09,-0.001952377
3608.161,-0.002036276
3606.233,-0.002107329
3604.304,-0.002162454
3602.376,-0.002195885
3600.448,-0.002198255
3598.519,-0.002177135
3596.591,-0.002150914
3594.662,-0.00213108
3592.734,-0.002109596
3590.805,-0.002075333
3588.877,-0.00202025
3586.948,-0.001945986
3585.02,-0.001874957
3583.091,-0.001833356
3581.163,-0.00183449
3579.234,-0.001857018
3577.306,-0.001868978
3575.377,-0.001867122
3573.449,-0.001863874
3571.521,-0.001855884
3569.592,-0.001831345
3567.664,-0.001806908
3565.735,-0.001800772
3563.807,-0.0018083
3561.878,-0.001817941
3559.95,-0.001826963
3558.021,-0.001814899
3556.093,-0.001757152
3554.164,-0.001730339
3552.236,-0.001791595
3550.307,-0.001877071
3548.379,-0.001939647
3546.45,-0.001966756
3544.522,-0.001956603
3542.594,-0.001932018
3540.665,-0.00191104
3538.737,-0.001872019
3536.808,-0.001821653
3534.88,-0.001859338
3532.951,-0.0019984
3531.023,-0.002101147
3529.094,-0.002097901
3527.166,-0.002084402
3525.237,-0.002130565
3523.309,-0.002157302
3521.38,-0.002135047
3519.452,-0.002142826
3517.523,-0.002184811
3515.595,-0.002193722
3513.667,-0.002186047
3511.738,-0.002227048
3509.81,-0.002295702
3507.881,-0.002353892
3505.953,-0.002414597
3504.024,-0.002494031
3502.096,-0.002592904
3500.167,-0.002652958
3498.239,-0.002648224
3496.31,-0.002665102
3494.382,-0.002702559
3492.453,-0.002711872
3490.525,-0.002768514
3488.596,-0.002872211
3486.668,-0.002955572
3484.74,-0.003049867
3482.811,-0.003133709
3480.883,-0.003148152
3478.954,-0.003153857
3477.026,-0.003208232
3475.097,-0.003275754
3473.169,-0.003359552
3471.24,-0.003438813
3469.312,-0.003429619
3467.383,-0.003395819
3465.455,-0.003418729
3463.526,-0.003452013
3461.598,-0.003531668
3459.669,-0.003713059
3457.741,-0.003907151
3455.813,-0.004021655
3453.884,-0.004091052
3451.956,-0.004184896
3450.027,-0.004304505
3448.099,-0.004416292
3446.17,-0.004469894
3444.242,-0.004460875
3442.313,-0.004475787
3440.385,-0.004591423
3438.456,-0.004830384
3436.528,-0.00508431
3434.599,-0.005210168
3432.671,-0.005280807
3430.742,-0.005388507
3428.814,-0.005486161
3426.885,-0.005560128
3424.957,-0.00562652
3423.029,-0.005657693
3421.1,-0.00565478
3419.172,-0.00572596
3417.243,-0.0059285
3415.315,-0.006106034
3413.386,-0.006178364
3411.458,-0.006346817
3409.529,-0.006662521
3407.601,-0.006844189
3405.672,-0.006787923
3403.744,-0.006711768
3401.815,-0.006836851
3399.887,-0.007151893
3397.958,-0.007421872
3396.03,-0.007575241
3394.102,-0.007682527
3392.173,-0.007719199
3390.245,-0.007768479
3388.316,-0.007924268
3386.388,-0.008113133
3384.459,-0.008275148
3382.531,-0.008383987
3380.602,-0.008379062
3378.674,-0.008348133
3376.745,-0.008463708
3374.817,-0.008568947
3372.888,-0.008504578
3370.96,-0.008491987
3369.031,-0.008606965
3367.103,-0.008706842
3365.175,-0.008779146
3363.246,-0.008818058
3361.318,-0.008787517
3359.389,-0.008736374
3357.461,-0.008725312
3355.532,-0.008809384
3353.604,-0.008969262
3351.675,-0.00902763
3349.747,-0.008966169
3347.818,-0.00899827
3345.89,-0.009076407
3343.961,-0.009015054
3342.033,-0.008978138
3340.104,-0.009103734
3338.176,-0.009228129
3336.248,-0.009315195
3334.319,-0.009419063
3332.391,-0.00944728
3330.462,-0.009364092
3328.534,-0.009325634
3326.605,-0.009435426
3324.677,-0.009518753
3322.748,-0.009447939
3320.82,-0.009345496
3318.891,-0.009308709
3316.963,-0.009308101
3315.034,-0.009243182
3313.106,-0.009095166
3311.177,-0.00895628
3309.249,-0.008862649
3307.321,-0.008816486
3305.392,-0.008840431
3303.464,-0.008895671
3301.535,-0.008878831
3299.607,-0.008816689
3297.678,-0.008780313
3295.75,-0.008685325
3293.821,-0.008573871
3291.893,-0.008577526
3289.964,-0.008634118
3288.036,-0.008677003
3286.107,-0.008698113
3284.179,-0.008677662
3282.25,-0.008605595
3280.322,-0.008443398
3278.394,-0.008261839
3276.465,-0.00827083
3274.537,-0.00846711
3272.608,-0.008617877
3270.68,-0.008668477
3268.751,-0.008727849
3266.823,-0.008794265
3264.894,-0.008843424
3262.966,-0.00888091
3261.037,-0.008917126
3259.109,-0.008956787
3257.18,-0.008909771
3255.252,-0.008846316
3253.323,-0.008963785
3251.395,-0.009120566
3249.467,-0.009167355
3247.538,-0.009304553
3245.61,-0.009569754
3243.681,-0.009693914
3241.753,-0.009584136
3239.824,-0.009474179
3237.896,-0.00954509
3235.967,-0.009687281
3234.039,-0.009735276
3232.11,-0.009681611
3230.182,-0.00963756
3228.253,-0.009655789
3226.325,-0.009675737
3224.396,-0.009648345
3222.468,-0.00949986
3220.54,-0.009247592
3218.611,-0.009208566
3216.683,-0.009484563
3214.754,-0.009669865
3212.826,-0.009599076
3210.897,-0.009544178
3208.969,-0.009540684
3207.04,-0.009433957
3205.112,-0.009327711
3203.183,-0.009280432
3201.255,-0.00912158
3199.326,-0.008913931
3197.398,-0.008899171
3195.469,-0.009033056
3193.541,-0.009064645
3191.613,-0.008903888
3189.684,-0.00868299
3187.756,-0.00855778
3185.827,-0.008589149
3183.899,-0.008668578
3181.97,-0.008637316
3180.042,-0.008574429
3178.113,-0.008571739
3176.185,-0.008571688
3174.256,-0.008597321
3172.328,-0.008606762
3170.399,-0.00848686
3168.471,-0.008353771
3166.542,-0.00832467
3164.614,-0.008314563
3162.686,-0.008303541
3160.757,-0.008321927
3158.829,-0.008278145
3156.9,-0.00817314
3154.972,-0.008136557
3153.043,-0.008177154
3151.115,-0.008199711
3149.186,-0.008150022
3147.258,-0.008045342
3145.329,-0.007931284
3143.401,-0.00781394
3141.472,-0.007676729
3139.544,-0.007534334
3137.615,-0.007434697
3135.687,-0.007413067
3133.759,-0.007406247
3131.83,-0.007301133
3129.902,-0.007141657
3127.973,-0.007050232
3126.045,-0.006986606
3124.116,-0.006869873
3122.188,-0.006720842
3120.259,-0.00656406
3118.331,-0.006446398
3116.402,-0.006390437
3114.474,-0.006285996
3112.545,-0.006091025
3110.617,-0.005898316
3108.688,-0.005734646
3106.76,-0.005582618
3104.832,-0.005444188
3102.903,-0.005303361
3100.975,-0.00515236
3099.046,-0.004985695
3097.118,-0.004792956
3095.189,-0.004583328
3093.261,-0.004388053
3091.332,-0.004236835
3089.404,-0.004093924
3087.475,-0.003899865
3085.547,-0.003680976
3083.618,-0.00348776
3081.69,-0.003309409
3079.761,-0.003100966
3077.833,-0.002868096
3075.905,-0.002695922
3073.976,-0.002601087
3072.048,-0.002498767
3070.119,-0.002378865
3068.191,-0.002279634
3066.262,-0.00217049
3064.334,-0.002042717
3062.405,-0.001937173
3060.477,-0.001860884
3058.548,-0.001806392
3056.62,-0.001756276
3054.691,-0.001702389
3052.763,-0.001678512
3050.834,-0.001676552
3048.906,-0.001654736
3046.978,-0.001623945
3045.049,-0.001610018
3043.121,-0.00158789
3041.192,-0.001528823
3039.264,-0.001473877
3037.335,-0.001460461
3035.407,-0.001457417
3033.478,-0.001444053
3031.55,-0.001426147
3029.621,-0.001391934
3027.693,-0.001349408
3025.764,-0.001319524
3023.836,-0.001283547
3021.907,-0.001240804
3019.979,-0.001230273
3018.051,-0.001247515
3016.122,-0.001242301
3014.194,-0.001181432
3012.265,-0.0010842
3010.337,-0.00100084
3008.408,-0.000956623
3006.48,-0.000925627
3004.551,-0.000852778
3002.623,-0.000734385
3000.694,-0.000632968
2998.766,-0.000570928
2996.837,-0.0004914
2994.909,-0.000359304
2992.98,-0.000218371
2991.052,-8.98E-05
2989.124,6.18E-05
2987.195,0.000234357
2985.267,0.000404449
2983.338,0.000582514
2981.41,0.000769235
2979.481,0.000946723
2977.553,0.001116057
2975.624,0.001292388
2973.696,0.001497519
2971.767,0.001728138
2969.839,0.001942134
2967.91,0.002138493
2965.982,0.002355242
2964.053,0.002567099
2962.125,0.002702968
2960.197,0.002756056
2958.268,0.002791018
2956.34,0.002825226
2954.411,0.002803185
2952.483,0.002720759
2950.554,0.002647542
2948.626,0.002625874
2946.697,0.002649053
2944.769,0.002711486
2942.84,0.002826607
2940.912,0.00300241
2938.983,0.00321633
2937.055,0.003422373
2935.126,0.003595937
2933.198,0.003753434
2931.27,0.003905843
2929.341,0.004032908
2927.413,0.004107325
2925.484,0.004108397
2923.556,0.00404038
2921.627,0.003913861
2919.699,0.003706255
2917.77,0.003424486
2915.842,0.003143317
2913.913,0.002906004
2911.985,0.002697133
2910.056,0.002506379
2908.128,0.00233377
2906.199,0.002187922
2904.271,0.002091619
2902.343,0.002041057
2900.414,0.001997938
2898.486,0.001943122
2896.557,0.001895437
2894.629,0.001871544
2892.7,0.001861639
2890.772,0.001847263
2888.843,0.001825141
2886.915,0.001803409
2884.986,0.001784252
2883.058,0.001770633
2881.129,0.0017724
2879.201,0.001789815
2877.272,0.001814457
2875.344,0.001834421
2873.416,0.001827532
2871.487,0.001778508
2869.559,0.001708621
2867.63,0.001660078
2865.702,0.001649814
2863.773,0.001681594
2861.845,0.001760418
2859.916,0.00186884
2857.988,0.001983141
2856.059,0.002079862
2854.131,0.002115185
2852.202,0.00205289
2850.274,0.001902041
2848.345,0.001712025
2846.417,0.001525418
2844.489,0.001357457
2842.56,0.001211495
2840.632,0.001086653
2838.703,0.000987169
2836.775,0.000915023
2834.846,0.000860188
2832.918,0.000822451
2830.989,0.000806942
2829.061,0.000801133
2827.132,0.000796594
2825.204,0.000799654
2823.275,0.000801107
2821.347,0.000788347
2819.418,0.000773877
2817.49,0.00077061
2815.562,0.000768042
2813.633,0.000754584
2811.705,0.00073537
2809.776,0.000716726
2807.848,0.000703192
2805.919,0.000701169
2803.991,0.000706329
2802.062,0.000706355
2800.134,0.000693962
2798.205,0.000672417
2796.277,0.000657431
2794.348,0.00065598
2792.42,0.000652713
2790.491,0.000637495
2788.563,0.000623575
2786.635,0.000624508
2784.706,0.0006292
2782.778,0.000620697
2780.849,0.000603122
2778.921,0.000589305
2776.992,0.000583681
2775.064,0.000583862
2773.135,0.000578496
2771.207,0.000559575
2769.278,0.000535859
2767.35,0.000518339
2765.421,0.000507999
2763.493,0.000500664
2761.564,0.000489598
2759.636,0.000469903
2757.708,0.00045464
2755.779,0.000457257
2753.851,0.00046358
2751.922,0.000456247
2749.994,0.000437953
2748.065,0.000422457
2746.137,0.000417457
2744.208,0.00041541
2742.28,0.000409606
2740.351,0.000401444
2738.423,0.000392997
2736.494,0.000385898
2734.566,0.000380742
2732.637,0.000372763
2730.709,0.000358487
2728.781,0.000346285
2726.852,0.000344834
2724.924,0.000348306
2722.995,0.000343461
2721.067,0.000331415
2719.138,0.000319058
2717.21,0.000305225
2715.281,0.000294475
2713.353,0.000289165
2711.424,0.00028357
2709.496,0.000279969
2707.567,0.000278078
2705.639,0.000274115
2703.71,0.000267588
2701.782,0.000257512
2699.854,0.000251089
2697.925,0.000252824
2695.997,0.000252669
2694.068,0.000246012
2692.14,0.000237206
2690.211,0.000228504
2688.283,0.00022019
2686.354,0.000215218
2684.426,0.000214466
2682.497,0.000211151
2680.569,0.000206516
2678.64,0.000210478
2676.712,0.00021861
2674.783,0.00021703
2672.855,0.000206567
2670.927,0.000202734
2668.998,0.000210659
2667.07,0.000220035
2665.141,0.000220216
2663.213,0.000208976
2661.284,0.000195121
2659.356,0.000186186
2657.427,0.00017764
2655.499,0.000165158
2653.57,0.000151563
2651.642,0.000146099
2649.713,0.000154411
2647.785,0.000166427
2645.856,0.000167799
2643.928,0.00015612
2642,0.000138926
2640.071,0.000126083
2638.143,0.000126264
2636.214,0.000136104
2634.286,0.000138408
2632.357,0.000127248
2630.429,0.000115881
2628.5,0.00011917
2626.572,0.000125772
2624.643,0.000114871
2622.715,0.000104152
2620.786,0.000112696
2618.858,0.000117745
2616.929,0.000105602
2615.001,9.64E-05
2613.073,0.000101744
2611.144,0.000113654
2609.216,0.000115234
2607.287,8.99E-05
2605.359,4.47E-05
2603.43,2.43E-06
2601.502,-1.10E-05
2599.573,4.53E-06
2597.645,5.02E-06
2595.716,-2.61E-05
2593.788,-4.28E-05
2591.859,-1.60E-06
2589.931,6.18E-05
2588.002,5.94E-05
2586.074,-8.80E-07
2584.146,-4.16E-05
2582.217,-6.13E-05
2580.289,-8.06E-05
2578.36,-8.03E-05
2576.432,-6.62E-05
2574.503,-5.83E-05
2572.575,-5.29E-05
2570.646,-5.93E-05
2568.718,-6.97E-05
2566.789,-4.62E-05
2564.861,-1.20E-05
2562.932,-1.18E-05
2561.004,-2.59E-05
2559.075,-1.83E-05
2557.147,1.21E-05
2555.219,2.38E-05
2553.29,6.37E-06
2551.362,8.72E-06
2549.433,1.03E-05
2547.505,-3.40E-05
2545.576,-6.76E-05
2543.648,-6.55E-05
2541.719,-6.49E-05
2539.791,-5.38E-05
2537.862,-4.69E-05
2535.934,-7.21E-05
2534.005,-8.22E-05
2532.077,-4.96E-05
2530.148,-3.08E-05
2528.22,-6.30E-05
2526.292,-9.93E-05
2524.363,-0.000102652
2522.435,-8.49E-05
2520.506,-6.36E-05
2518.578,-6.95E-05
2516.649,-0.000115591
2514.721,-0.000165639
2512.792,-0.00019229
2510.864,-0.000186029
2508.935,-0.00012408
2507.007,-4.51E-05
2505.078,-3.70E-05
2503.15,-9.61E-05
2501.221,-0.000130342
2499.293,-9.31E-05
2497.365,-6.45E-05
2495.436,-0.000107983
2493.508,-0.000134017
2491.579,-9.35E-05
2489.651,-7.09E-05
2487.722,-0.000105913
2485.794,-0.00015327
2483.865,-0.00018489
2481.937,-0.000217543
2480.008,-0.000241035
2478.08,-0.000205641
2476.151,-0.000143695
2474.223,-0.000133396
2472.294,-0.000152545
2470.366,-0.0001704
2468.438,-0.000199069
2466.509,-0.000220544
2464.581,-0.000247089
2462.652,-0.00027922
2460.724,-0.000267423
2458.795,-0.000237361
2456.867,-0.000232446
2454.938,-0.000219768
2453.01,-0.000185149
2451.081,-0.000146179
2449.153,-0.000117144
2447.224,-0.000143126
2445.296,-0.000219095
2443.367,-0.000274046
2441.439,-0.000287446
2439.51,-0.000268355
2437.582,-0.000251228
2435.654,-0.000284083
2433.725,-0.000320143
2431.797,-0.000299553
2429.868,-0.000265147
2427.94,-0.00025335
2426.011,-0.000244605
2424.083,-0.000229341
2422.154,-0.000211851
2420.226,-0.000222097
2418.297,-0.000282945
2416.369,-0.000326144
2414.44,-0.000303122
2412.512,-0.000283359
2410.583,-0.000286825
2408.655,-0.000263284
2406.727,-0.000234722
2404.798,-0.000220751
2402.87,-0.000208073
2400.941,-0.000220441
2399.013,-0.000257955
2397.084,-0.000277512
2395.156,-0.000269441
2393.227,-0.000267113
2391.299,-0.000290395
2389.37,-0.000357804
2387.442,-0.000495589
2385.513,-0.000746324
2383.585,-0.001239359
2381.656,-0.002125568
2379.728,-0.003444155
2377.8,-0.005110456
2375.871,-0.006942332
2373.943,-0.008741854
2372.014,-0.01043343
2370.086,-0.01201603
2368.157,-0.01342857
2366.229,-0.01460301
2364.3,-0.01551785
2362.372,-0.01613664
2360.443,-0.01635907
2358.515,-0.01609698
2356.586,-0.01533163
2354.658,-0.01397982
2352.729,-0.01186155
2350.801,-0.009477522
2348.873,-0.008305319
2346.944,-0.009151844
2345.016,-0.01097502
2343.087,-0.01211694
2341.159,-0.01235914
2339.23,-0.01226
2337.302,-0.01203365
2335.373,-0.01176527
2333.445,-0.01156503
2331.516,-0.01137791
2329.588,-0.01099682
2327.659,-0.0104586
2325.731,-0.01000836
2323.802,-0.009645358
2321.874,-0.009117828
2319.946,-0.008297496
2318.017,-0.007334121
2316.089,-0.006460425
2314.16,-0.005755593
2312.232,-0.005125038
2310.303,-0.004514728
2308.375,-0.003929007
2306.446,-0.003348403
2304.518,-0.002806066
2302.589,-0.002399615
2300.661,-0.002145299
2298.732,-0.001953459
2296.804,-0.001769682
2294.875,-0.001567566
2292.947,-0.001332685
2291.019,-0.001098556
2289.09,-0.000911575
2287.162,-0.000815367
2285.233,-0.000748029
2283.305,-0.000629815
2281.376,-0.000580596
2279.448,-0.000693552
2277.519,-0.000824823
2275.591,-0.000852881
2273.662,-0.000827355
2271.734,-0.000805497
2269.805,-0.000789374
2267.877,-0.000813042
2265.948,-0.000921804
2264.02,-0.001037099
2262.092,-0.001009827
2260.163,-0.000876907
2258.235,-0.000770718
2256.306,-0.000709679
2254.378,-0.000726529
2252.449,-0.000858462
2250.521,-0.000996966
2248.592,-0.001009311
2246.664,-0.000922992
2244.735,-0.0009139
2242.807,-0.000974341
2240.878,-0.00091328
2238.95,-0.000696602
2237.021,-0.000439477
2235.093,-0.000359925
2233.165,-0.000489642
2231.236,-0.00051405
2229.308,-0.00035589
2227.379,-0.000308606
2225.451,-0.000403478
2223.522,-0.000462284
2221.594,-0.000696344
2219.665,-0.00106912
2217.737,-0.001003836
2215.808,-0.000548022
2213.88,-0.000321799
2211.951,-0.000343837
2210.023,-0.000188513
2208.094,-7.55E-05
2206.166,-0.000466991
2204.238,-0.001024031
2202.309,-0.001130108
2200.381,-0.001046085
2198.452,-0.0013732
2196.524,-0.001411079
2194.595,-0.000557019
2192.667,-2.04E-05
2190.738,-0.000361994
2188.81,-0.000568808
2186.881,-0.000602363
2184.953,-0.001221599
2183.024,-0.001738435
2181.096,-0.001326492
2179.167,-0.000903567
2177.239,-0.001114564
2175.311,-0.001417891
2173.382,-0.001711568
2171.454,-0.001984588
2169.525,-0.001431359
2167.597,-0.000350148
2165.668,-0.000276322
