Wavenumbers [1/cm],Absorbance
3997.712,-0.00026731
3995.783,-0.000277008
3993.855,-0.000275518
3991.926,-0.000272098
3989.998,-0.000274597
3988.069,-0.000280087
3986.141,-0.000273932
3984.212,-0.000259557
3982.284,-0.000262178
3980.355,-0.000281537
3978.427,-0.000298077
3976.499,-0.000306725
3974.57,-0.000307355
3972.642,-0.000300183
3970.713,-0.000291838
3968.785,-0.000290496
3966.856,-0.000295323
3964.928,-0.000291762
3962.999,-0.000280648
3961.071,-0.0002817
3959.142,-0.000290178
3957.214,-0.000285055
3955.285,-0.000271686
3953.357,-0.000271694
3951.428,-0.000283404
3949.5,-0.000292369
3947.572,-0.000298094
3945.643,-0.000294905
3943.715,-0.000275172
3941.786,-0.000251434
3939.858,-0.00024341
3937.929,-0.000254609
3936.001,-0.000270378
3934.072,-0.000276117
3932.144,-0.000272932
3930.215,-0.000277413
3928.287,-0.000290671
3926.358,-0.000293912
3924.43,-0.000282961
3922.501,-0.000270026
3920.573,-0.000269363
3918.645,-0.000277903
3916.716,-0.000286593
3914.788,-0.000297394
3912.859,-0.000303529
3910.931,-0.000304016
3909.002,-0.000306745
3907.074,-0.000300649
3905.145,-0.000286359
3903.217,-0.000284957
3901.288,-0.00029334
3899.36,-0.000291921
3897.431,-0.00028161
3895.503,-0.000275173
3893.574,-0.000274005
3891.646,-0.000268383
3889.718,-0.00026227
3887.789,-0.000275345
3885.861,-0.000301142
3883.932,-0.000313975
3882.004,-0.00031438
3880.075,-0.000311019
3878.147,-0.000304321
3876.218,-0.000303953
3874.29,-0.000312514
3872.361,-0.000321605
3870.433,-0.000327767
3868.504,-0.000326936
3866.576,-0.000321493
3864.647,-0.000317165
3862.719,-0.000305855
3860.791,-0.00028642
3858.862,-0.000278952
3856.934,-0.00030034
3855.005,-0.000340448
3853.077,-0.000360954
3851.148,-0.000337941
3849.22,-0.000293055
3847.291,-0.000263245
3845.363,-0.000262576
3843.434,-0.000282085
3841.506,-0.000303935
3839.577,-0.000320139
3837.649,-0.00033355
3835.72,-0.000342061
3833.792,-0.000340814
3831.864,-0.000337132
3829.935,-0.000338483
3828.007,-0.000336833
3826.078,-0.000323452
3824.15,-0.000307981
3822.221,-0.000300354
3820.293,-0.000297182
3818.364,-0.000299842
3816.436,-0.000304219
3814.507,-0.000293402
3812.579,-0.000275022
3810.65,-0.000270808
3808.722,-0.000275528
3806.793,-0.00027473
3804.865,-0.000273185
3802.937,-0.000282846
3801.008,-0.000296123
3799.08,-0.000303258
3797.151,-0.000312578
3795.223,-0.000317492
3793.294,-0.000310157
3791.366,-0.000312571
3789.437,-0.000329789
3787.509,-0.00033626
3785.58,-0.000323047
3783.652,-0.000306787
3781.723,-0.000305753
3779.795,-0.000316103
3777.866,-0.000325333
3775.938,-0.000329826
3774.01,-0.00031623
3772.081,-0.000284285
3770.153,-0.000271008
3768.224,-0.000294792
3766.296,-0.000323483
3764.367,-0.000331232
3762.439,-0.000333647
3760.51,-0.000337405
3758.582,-0.000318277
3756.653,-0.000290711
3754.725,-0.000301975
3752.796,-0.000335628
3750.868,-0.000344119
3748.939,-0.000335619
3747.011,-0.000336045
3745.083,-0.000336041
3743.154,-0.000321688
3741.226,-0.000308569
3739.297,-0.000311453
3737.369,-0.000325473
3735.44,-0.000346206
3733.512,-0.000363016
3731.583,-0.000358947
3729.655,-0.000332102
3727.726,-0.000309124
3725.798,-0.00031404
3723.869,-0.000330341
3721.941,-0.000341449
3720.012,-0.00035022
3718.084,-0.000351467
3716.156,-0.000344338
3714.227,-0.000339246
3712.299,-0.00035586
3710.37,-0.000399634
3708.442,-0.000423634
3706.513,-0.000396425
3704.585,-0.00037042
3702.656,-0.000394002
3700.728,-0.00043912
3698.799,-0.00046407
3696.871,-0.00046425
3694.942,-0.000448864
3693.014,-0.000436251
3691.085,-0.000449873
3689.157,-0.000489789
3687.229,-0.000531649
3685.3,-0.000543697
3683.372,-0.000526919
3681.443,-0.000527329
3679.515,-0.000567284
3677.586,-0.000620469
3675.658,-0.000661973
3673.729,-0.000690562
3671.801,-0.000713976
3669.872,-0.000728151
3667.944,-0.000728672
3666.015,-0.000727401
3664.087,-0.000724142
3662.158,-0.000713215
3660.23,-0.000713301
3658.302,-0.000727169
3656.373,-0.000735256
3654.445,-0.000741364
3652.516,-0.000753745
3650.588,-0.000764666
3648.659,-0.00076011
3646.731,-0.000745653
3644.802,-0.000760232
3642.874,-0.00080757
3640.945,-0.000837052
3639.017,-0.000843627
3637.088,-0.000871938
3635.16,-0.000901359
3633.231,-0.000892533
3631.303,-0.00088363
3629.375,-0.000883815
3627.446,-0.000850736
3625.518,-0.000804022
3623.589,-0.000791081
3621.661,-0.00080766
3619.732,-0.000821518
3617.804,-0.000822656
3615.875,-0.000822452
3613.947,-0.000831858
3612.018,-0.000856652
3610.09,-0.00087338
3608.161,-0.000849376
3606.233,-0.000813679
3604.304,-0.000797585
3602.376,-0.000777188
3600.448,-0.000759095
3598.519,-0.000760491
3596.591,-0.000756899
3594.662,-0.000752367
3592.734,-0.000766152
3590.805,-0.000784536
3588.877,-0.000780839
3586.948,-0.000732212
3585.02,-0.00068018
3583.091,-0.000697115
3581.163,-0.000753041
3579.234,-0.000783438
3577.306,-0.000780366
3575.377,-0.000766973
3573.449,-0.000778695
3571.521,-0.000804766
3569.592,-0.000810064
3567.664,-0.000799733
3565.735,-0.000789338
3563.807,-0.000793451
3561.878,-0.000799999
3559.95,-0.000767417
3558.021,-0.000711082
3556.093,-0.000697639
3554.164,-0.000734529
3552.236,-0.000767763
3550.307,-0.000769375
3548.379,-0.000754588
3546.45,-0.000743239
3544.522,-0.000729416
3542.594,-0.000709673
3540.665,-0.000699408
3538.737,-0.000686032
3536.808,-0.00066179
3534.88,-0.000666448
3532.951,-0.000702347
3531.023,-0.000708361
3529.094,-0.000646689
3527.166,-0.000584625
3525.237,-0.000635503
3523.309,-0.000770304
3521.38,-0.000875419
3519.452,-0.000933399
3517.523,-0.000958796
3515.595,-0.000940394
3513.667,-0.000881871
3511.738,-0.000815206
3509.81,-0.000778782
3507.881,-0.000796386
3505.953,-0.000869856
3504.024,-0.000940785
3502.096,-0.000960086
3500.167,-0.000949616
3498.239,-0.000919785
3496.31,-0.000903046
3494.382,-0.000964563
3492.453,-0.001077629
3490.525,-0.001141724
3488.596,-0.001124779
3486.668,-0.001096237
3484.74,-0.001113018
3482.811,-0.001151961
3480.883,-0.00119549
3478.954,-0.001252153
3477.026,-0.001307797
3475.097,-0.00135071
3473.169,-0.00138663
3471.24,-0.001425863
3469.312,-0.001459384
3467.383,-0.001455368
3465.455,-0.001422173
3463.526,-0.001408265
3461.598,-0.001436618
3459.669,-0.001474404
3457.741,-0.001489665
3455.813,-0.001488316
3453.884,-0.001484323
3451.956,-0.001489814
3450.027,-0.001483343
3448.099,-0.001443592
3446.17,-0.001446756
3444.242,-0.001560351
3442.313,-0.001684465
3440.385,-0.001722761
3438.456,-0.001752334
3436.528,-0.001832065
3434.599,-0.001921175
3432.671,-0.001982261
3430.742,-0.001991789
3428.814,-0.001984716
3426.885,-0.002017875
3424.957,-0.002093888
3423.029,-0.002226749
3421.1,-0.002348911
3419.172,-0.002292861
3417.243,-0.002102095
3415.315,-0.002015254
3413.386,-0.002114151
3411.458,-0.002277075
3409.529,-0.002406091
3407.601,-0.002560993
3405.672,-0.002794286
3403.744,-0.002994502
3401.815,-0.003042499
3399.887,-0.002960157
3397.958,-0.002823946
3396.03,-0.002684659
3394.102,-0.002619605
3392.173,-0.002711471
3390.245,-0.002890053
3388.316,-0.002985156
3386.388,-0.002999968
3384.459,-0.003070392
3382.531,-0.003209077
3380.602,-0.003312135
3378.674,-0.003279819
3376.745,-0.003129506
3374.817,-0.003033049
3372.888,-0.003082141
3370.96,-0.003180775
3369.031,-0.003255021
3367.103,-0.003324626
3365.175,-0.003420388
3363.246,-0.003543792
3361.318,-0.003623739
3359.389,-0.003613692
3357.461,-0.003606951
3355.532,-0.003655717
3353.604,-0.003645453
3351.675,-0.003589284
3349.747,-0.00370235
3347.818,-0.003965704
3345.89,-0.004062943
3343.961,-0.003863734
3342.033,-0.003644141
3340.104,-0.003621464
3338.176,-0.00360777
3336.248,-0.003472847
3334.319,-0.003413643
3332.391,-0.003592756
3330.462,-0.003842574
3328.534,-0.003862261
3326.605,-0.003724653
3324.677,-0.003745888
3322.748,-0.003928972
3320.82,-0.004058355
3318.891,-0.004025925
3316.963,-0.003858855
3315.034,-0.00369659
3313.106,-0.003666148
3311.177,-0.003710124
3309.249,-0.003698018
3307.321,-0.0036948
3305.392,-0.003800693
3303.464,-0.003858794
3301.535,-0.003826051
3299.607,-0.003889837
3297.678,-0.003994842
3295.75,-0.003984523
3293.821,-0.003938984
3291.893,-0.004024753
3289.964,-0.00421814
3288.036,-0.004341931
3286.107,-0.004316958
3284.179,-0.004127661
3282.25,-0.003828263
3280.322,-0.003647731
3278.394,-0.003689826
3276.465,-0.003797864
3274.537,-0.003808752
3272.608,-0.003719551
3270.68,-0.00364668
3268.751,-0.003581201
3266.823,-0.003499784
3264.894,-0.003599678
3262.966,-0.003860423
3261.037,-0.004022856
3259.109,-0.004038172
3257.18,-0.003928525
3255.252,-0.003799243
3253.323,-0.00387277
3251.395,-0.004051574
3249.467,-0.004119644
3247.538,-0.004178675
3245.61,-0.004303625
3243.681,-0.004369748
3241.753,-0.004335359
3239.824,-0.004269561
3237.896,-0.004237815
3235.967,-0.004322185
3234.039,-0.004547684
3232.11,-0.004669242
3230.182,-0.004517723
3228.253,-0.004398311
3226.325,-0.004501491
3224.396,-0.004587091
3222.468,-0.004543577
3220.54,-0.004535507
3218.611,-0.004651606
3216.683,-0.004737774
3214.754,-0.004625934
3212.826,-0.004455492
3210.897,-0.004456725
3208.969,-0.004556682
3207.04,-0.004535099
3205.112,-0.004382222
3203.183,-0.004268182
3201.255,-0.004268539
3199.326,-0.004359279
3197.398,-0.004443432
3195.469,-0.004368558
3193.541,-0.004199408
3191.613,-0.004130945
3189.684,-0.004168203
3187.756,-0.004185771
3185.827,-0.004129334
3183.899,-0.004058356
3181.97,-0.004032795
3180.042,-0.004046978
3178.113,-0.004062558
3176.185,-0.004122104
3174.256,-0.004231434
3172.328,-0.004226028
3170.399,-0.004107684
3168.471,-0.004018818
3166.542,-0.003917772
3164.614,-0.003797355
3162.686,-0.003764823
3160.757,-0.003791332
3158.829,-0.003789171
3156.9,-0.003783746
3154.972,-0.003801616
3153.043,-0.003775277
3151.115,-0.003727827
3149.186,-0.003775729
3147.258,-0.003852795
3145.329,-0.003858708
3143.401,-0.003853918
3141.472,-0.003840464
3139.544,-0.003767988
3137.615,-0.003671292
3135.687,-0.003599742
3133.759,-0.003534159
3131.83,-0.003453248
3129.902,-0.003404074
3127.973,-0.003381331
3126.045,-0.003340997
3124.116,-0.003295095
3122.188,-0.003254406
3120.259,-0.003194616
3118.331,-0.003102142
3116.402,-0.00304725
3114.474,-0.003030737
3112.545,-0.002942114
3110.617,-0.002808688
3108.688,-0.002724428
3106.76,-0.002699937
3104.832,-0.002692347
3102.903,-0.002620151
3100.975,-0.002486609
3099.046,-0.002401251
3097.118,-0.002362383
3095.189,-0.002287003
3093.261,-0.002211541
3091.332,-0.002190139
3089.404,-0.002156783
3087.475,-0.002056107
3085.547,-0.001940451
3083.618,-0.001864315
3081.69,-0.001814939
3079.761,-0.001769292
3077.833,-0.001712122
3075.905,-0.00164012
3073.976,-0.00157035
3072.048,-0.001510961
3070.119,-0.001471419
3068.191,-0.001439342
3066.262,-0.001372423
3064.334,-0.001280526
3062.405,-0.001215222
3060.477,-0.001186995
3058.548,-0.001165918
3056.62,-0.001142569
3054.691,-0.001128365
3052.763,-0.00110211
3050.834,-0.001052712
3048.906,-0.00102829
3046.978,-0.001045229
3045.049,-0.00104204
3043.121,-0.000996982
3041.192,-0.000966023
3039.264,-0.000959247
3037.335,-0.000936302
3035.407,-0.00090357
3033.478,-0.000895959
3031.55,-0.000914454
3029.621,-0.000912551
3027.693,-0.000865866
3025.764,-0.000832908
3023.836,-0.000853216
3021.907,-0.000866498
3019.979,-0.000820677
3018.051,-0.00074908
3016.122,-0.000681259
3014.194,-0.000607828
3012.265,-0.00053672
3010.337,-0.000480104
3008.408,-0.000446377
3006.48,-0.000455849
3004.551,-0.000495205
3002.623,-0.000511595
3000.694,-0.000485277
2998.766,-0.000457714
2996.837,-0.00044649
2994.909,-0.000410185
2992.98,-0.000341048
2991.052,-0.00027137
2989.124,-0.000199179
2987.195,-0.000113179
2985.267,-3.06E-05
2983.338,3.15E-05
2981.41,8.86E-05
2979.481,0.000167355
2977.553,0.000252617
2975.624,0.000328163
2973.696,0.000413059
2971.767,0.000515668
2969.839,0.000642334
2967.91,0.000795612
2965.982,0.000945823
2964.053,0.001072239
2962.125,0.001180677
2960.197,0.001277607
2958.268,0.001363968
2956.34,0.001430554
2954.411,0.001464098
2952.483,0.001461002
2950.554,0.001428915
2948.626,0.001387936
2946.697,0.001369695
2944.769,0.001395165
2942.84,0.001461389
2940.912,0.001562757
2938.983,0.001705981
2937.055,0.001894746
2935.126,0.002102838
2933.198,0.002293511
2931.27,0.002466516
2929.341,0.002642948
2927.413,0.0028074
2925.484,0.002916374
2923.556,0.002947502
2921.627,0.002892834
2919.699,0.002747563
2917.77,0.00253546
2915.842,0.002296251
2913.913,0.002052501
2911.985,0.001828041
2910.056,0.001647235
2908.128,0.001499687
2906.199,0.00136795
2904.271,0.001265951
2902.343,0.001207668
2900.414,0.001174311
2898.486,0.00113805
2896.557,0.001098152
2894.629,0.001069217
2892.7,0.001050201
2890.772,0.001026571
2888.843,0.000987347
2886.915,0.00093841
2884.986,0.000898948
2883.058,0.000867184
2881.129,0.000833319
2879.201,0.000817737
2877.272,0.000833106
2875.344,0.00085729
2873.416,0.000880375
2871.487,0.000897815
2869.559,0.000887947
2867.63,0.000856367
2865.702,0.000843912
2863.773,0.000879505
2861.845,0.000963786
2859.916,0.001083258
2857.988,0.001231483
2856.059,0.001398781
2854.131,0.001533303
2852.202,0.001563597
2850.274,0.001469331
2848.345,0.001290223
2846.417,0.001074683
2844.489,0.000864214
2842.56,0.000688764
2840.632,0.00055177
2838.703,0.000452295
2836.775,0.000388318
2834.846,0.000343968
2832.918,0.000304414
2830.989,0.00027219
2829.061,0.000256322
2827.132,0.000246643
2825.204,0.000231781
2823.275,0.000217745
2821.347,0.000206781
2819.418,0.000196723
2817.49,0.000187799
2815.562,0.000179572
2813.633,0.000175005
2811.705,0.000172938
2809.776,0.000163702
2807.848,0.000150154
2805.919,0.000146662
2803.991,0.000149964
2802.062,0.0001417
2800.134,0.000124905
2798.205,0.000118894
2796.277,0.000114243
2794.348,9.93E-05
2792.42,9.07E-05
2790.491,9.20E-05
2788.563,8.94E-05
2786.635,7.99E-05
2784.706,7.21E-05
2782.778,6.96E-05
2780.849,6.46E-05
2778.921,5.60E-05
2776.992,4.69E-05
2775.064,4.02E-05
2773.135,4.09E-05
2771.207,4.54E-05
2769.278,4.75E-05
2767.35,4.58E-05
2765.421,3.86E-05
2763.493,2.89E-05
2761.564,2.20E-05
2759.636,1.56E-05
2757.708,7.72E-06
2755.779,3.93E-07
2753.851,-2.78E-06
2751.922,2.70E-06
2749.994,7.72E-06
2748.065,1.21E-06
2746.137,-6.02E-06
2744.208,2.25E-06
2742.28,2.09E-05
2740.351,2.57E-05
2738.423,8.11E-06
2736.494,-7.67E-06
2734.566,-8.77E-06
2732.637,-1.31E-05
2730.709,-2.82E-05
2728.781,-4.10E-05
2726.852,-4.35E-05
2724.924,-4.19E-05
2722.995,-4.39E-05
2721.067,-4.29E-05
2719.138,-3.26E-05
2717.21,-2.46E-05
2715.281,-2.86E-05
2713.353,-3.91E-05
2711.424,-4.82E-05
2709.496,-4.84E-05
2707.567,-4.01E-05
2705.639,-3.25E-05
2703.71,-3.41E-05
2701.782,-4.45E-05
2699.854,-5.40E-05
2697.925,-5.94E-05
2695.997,-6.49E-05
2694.068,-7.02E-05
2692.14,-7.46E-05
2690.211,-7.00E-05
2688.283,-5.68E-05
2686.354,-5.38E-05
2684.426,-6.26E-05
2682.497,-7.06E-05
2680.569,-7.68E-05
2678.64,-8.11E-05
2676.712,-8.17E-05
2674.783,-7.82E-05
2672.855,-6.72E-05
2670.927,-5.62E-05
2668.998,-5.79E-05
2667.07,-6.25E-05
2665.141,-5.96E-05
2663.213,-5.52E-05
2661.284,-5.05E-05
2659.356,-5.00E-05
2657.427,-6.06E-05
2655.499,-7.69E-05
2653.57,-9.22E-05
2651.642,-0.000102024
2649.713,-0.000105876
2647.785,-0.000105463
2645.856,-0.000101466
2643.928,-0.000104763
2642,-0.000119624
2640.071,-0.000126241
2638.143,-0.000115362
2636.214,-0.000102605
2634.286,-9.77E-05
2632.357,-9.91E-05
2630.429,-0.000111028
2628.5,-0.000135889
2626.572,-0.000154045
2624.643,-0.000149677
2622.715,-0.000139324
2620.786,-0.000139958
2618.858,-0.00014347
2616.929,-0.000130084
2615.001,-0.000101641
2613.073,-9.08E-05
2611.144,-0.000109141
2609.216,-0.000134885
2607.287,-0.00014454
2605.359,-0.000133414
2603.43,-0.000130995
2601.502,-0.000155741
2599.573,-0.000180717
2597.645,-0.000189875
2595.716,-0.000187452
2593.788,-0.000172577
2591.859,-0.000159746
2589.931,-0.000164346
2588.002,-0.000164655
2586.074,-0.000148869
2584.146,-0.000150485
2582.217,-0.000158069
2580.289,-0.000138851
2578.36,-0.000141604
2576.432,-0.000189096
2574.503,-0.000220414
2572.575,-0.000220857
2570.646,-0.000222985
2568.718,-0.000235822
2566.789,-0.000263423
2564.861,-0.000307238
2562.932,-0.000327575
2561.004,-0.000276825
2559.075,-0.000186017
2557.147,-0.000138369
2555.219,-0.000170012
2553.29,-0.000234684
2551.362,-0.000247701
2549.433,-0.000197809
2547.505,-0.000169133
2545.576,-0.000202212
2543.648,-0.000251687
2541.719,-0.000273066
2539.791,-0.000259346
2537.862,-0.000232617
2535.934,-0.00022607
2534.005,-0.000262978
2532.077,-0.000296613
2530.148,-0.000250899
2528.22,-0.000177967
2526.292,-0.000172087
2524.363,-0.000210037
2522.435,-0.000244351
2520.506,-0.000268175
2518.578,-0.000266838
2516.649,-0.000236568
2514.721,-0.000200003
2512.792,-0.000177168
2510.864,-0.000166842
2508.935,-0.000164018
2507.007,-0.000180168
2505.078,-0.00021963
2503.15,-0.00025519
2501.221,-0.000277397
2499.293,-0.000313789
2497.365,-0.000368771
2495.436,-0.000394297
2493.508,-0.000359267
2491.579,-0.000299725
2489.651,-0.000245735
2487.722,-0.000189095
2485.794,-0.000132973
2483.865,-0.000126743
2481.937,-0.000191301
2480.008,-0.000250399
2478.08,-0.000274195
2476.151,-0.000302853
2474.223,-0.00032
2472.294,-0.000329511
2470.366,-0.000346992
2468.438,-0.000337038
2466.509,-0.000322326
2464.581,-0.00031179
2462.652,-0.000269877
2460.724,-0.000259969
2458.795,-0.000307863
2456.867,-0.000334905
2454.938,-0.000323633
2453.01,-0.000308332
2451.081,-0.000319739
2449.153,-0.000350571
2447.224,-0.000341019
2445.296,-0.000281121
2443.367,-0.000233138
2441.439,-0.000238692
2439.51,-0.00028229
2437.582,-0.000323201
2435.654,-0.000321968
2433.725,-0.000278602
2431.797,-0.000233383
2429.868,-0.000204716
2427.94,-0.0002082
2426.011,-0.000252846
2424.083,-0.000286466
2422.154,-0.00025645
2420.226,-0.000195713
2418.297,-0.000159148
2416.369,-0.000162828
2414.44,-0.000206397
2412.512,-0.000247804
2410.583,-0.000260078
2408.655,-0.000278762
2406.727,-0.0002908
2404.798,-0.000268412
2402.87,-0.000250751
2400.941,-0.000255223
2399.013,-0.000248708
2397.084,-0.000230118
2395.156,-0.000231529
2393.227,-0.000253004
2391.299,-0.00027465
2389.37,-0.000291405
2387.442,-0.000298459
2385.513,-0.000285482
2383.585,-0.000252081
2381.656,-0.000219279
2379.728,-0.000206314
2377.8,-0.000190968
2375.871,-0.000136312
2373.943,-6.10E-05
2372.014,2.56E-06
2370.086,6.52E-05
2368.157,0.000118729
2366.229,0.00014015
2364.3,0.000152378
2362.372,0.000179874
2360.443,0.000219867
2358.515,0.0002599
2356.586,0.000267792
2354.658,0.000212696
2352.729,0.000101656
2350.801,-1.48E-05
2348.873,-6.43E-05
2346.944,-1.76E-05
2345.016,6.71E-05
2343.087,0.000104907
2341.159,9.44E-05
2339.23,8.55E-05
2337.302,9.22E-05
2335.373,9.05E-05
2333.445,7.53E-05
2331.516,7.38E-05
2329.588,8.22E-05
2327.659,6.70E-05
2325.731,3.63E-05
2323.802,2.09E-05
2321.874,3.55E-06
2319.946,-5.16E-05
2318.017,-0.000122909
2316.089,-0.000176404
2314.16,-0.000205266
2312.232,-0.000201381
2310.303,-0.000203669
2308.375,-0.000257222
2306.446,-0.00029594
2304.518,-0.000271342
2302.589,-0.000261957
2300.661,-0.000291163
2298.732,-0.000293994
2296.804,-0.000271537
2294.875,-0.000249746
2292.947,-0.000230122
2291.019,-0.000232316
2289.09,-0.00024702
2287.162,-0.000265704
2285.233,-0.000316562
2283.305,-0.000354599
2281.376,-0.000326615
2279.448,-0.000321178
2277.519,-0.000364114
2275.591,-0.000349691
2273.662,-0.000313736
2271.734,-0.000316097
2269.805,-0.000333035
2267.877,-0.000447661
2265.948,-0.00066093
2264.02,-0.000776388
2262.092,-0.000687805
2260.163,-0.000506365
2258.235,-0.000425547
2256.306,-0.000454263
2254.378,-0.000434748
2252.449,-0.000340541
2250.521,-0.000266545
2248.592,-0.00027512
2246.664,-0.000287817
2244.735,-0.000185149
2242.807,-6.32E-05
2240.878,-5.10E-05
2238.95,-0.000111864
2237.021,-7.87E-05
2235.093,0.000135922
2233.165,0.000236695
2231.236,3.56E-05
2229.308,-0.000112283
2227.379,-1.04E-05
2225.451,-5.36E-05
2223.522,-0.000549051
2221.594,-0.001076417
2219.665,-0.001212664
2217.737,-0.001206193
2215.808,-0.001125112
2213.88,-0.000681373
2211.951,-0.000243378
2210.023,-0.000586369
2208.094,-0.001617662
2206.166,-0.002276272
2204.238,-0.002005776
2202.309,-0.001230117
2200.381,-0.000366445
2198.452,7.46E-05
2196.524,-0.000430197
2194.595,-0.001311711
2192.667,-0.001528444
