Wavenumbers [1/cm],absorbance
3997.712,-0.000411599
3995.783,-0.000411082
3993.855,-0.000410564
3991.926,-0.000427219
3989.998,-0.000438856
3988.069,-0.000422357
3986.141,-0.000401099
3984.212,-0.000399909
3982.284,-0.000406685
3980.355,-0.000404513
3978.427,-0.000400271
3976.499,-0.000405496
3974.57,-0.000413564
3972.642,-0.000416357
3970.713,-0.000427788
3968.785,-0.000454061
3966.856,-0.000468025
3964.928,-0.000451786
3962.999,-0.00042846
3961.071,-0.000415064
3959.142,-0.000399754
3957.214,-0.000386668
3955.285,-0.000387806
3953.357,-0.000396651
3951.428,-0.000400116
3949.5,-0.000392564
3947.572,-0.000386616
3945.643,-0.000398875
3943.715,-0.000418064
3941.786,-0.000422357
3939.858,-0.00040984
3937.929,-0.000396858
3936.001,-0.000392927
3934.072,-0.000395823
3932.144,-0.000401151
3930.215,-0.000401978
3928.287,-0.000394789
3926.358,-0.000385582
3924.43,-0.000386771
3922.501,-0.000405444
3920.573,-0.000418116
3918.645,-0.000400892
3916.716,-0.000372081
3914.788,-0.000358476
3912.859,-0.000373271
3910.931,-0.000407616
3909.002,-0.000427736
3907.074,-0.000426909
3905.145,-0.000421788
3903.217,-0.000413099
3901.288,-0.000402599
3899.36,-0.000388064
3897.431,-0.000371822
3895.503,-0.000370581
3893.574,-0.000375133
3891.646,-0.000380461
3889.718,-0.00040084
3887.789,-0.000416461
3885.861,-0.000411754
3883.932,-0.000409375
3882.004,-0.00042215
3880.075,-0.000434822
3878.147,-0.000439684
3876.218,-0.000443666
3874.29,-0.000435856
3872.361,-0.000419409
3870.433,-0.000422461
3868.504,-0.000440459
3866.576,-0.000446821
3864.647,-0.000433684
3862.719,-0.000409892
3860.791,-0.000394375
3858.862,-0.000411547
3856.934,-0.000441752
3855.005,-0.000431408
3853.077,-0.000395771
3851.148,-0.000391892
3849.22,-0.000406944
3847.291,-0.000401409
3845.363,-0.00038884
3843.434,-0.000405702
3841.506,-0.00044408
3839.577,-0.000460578
3837.649,-0.000451372
3835.72,-0.000445735
3833.792,-0.000442476
3831.864,-0.000439684
3829.935,-0.000449407
3828.007,-0.00045794
3826.078,-0.000442063
3824.15,-0.000406737
3822.221,-0.000388323
3820.293,-0.000408909
3818.364,-0.000433581
3816.436,-0.000432857
3814.507,-0.000439425
3812.579,-0.00046337
3810.65,-0.000468387
3808.722,-0.000460991
3806.793,-0.00045644
3804.865,-0.000437873
3802.937,-0.000414392
3801.008,-0.00041134
3799.08,-0.000427633
3797.151,-0.000443097
3795.223,-0.000446976
3793.294,-0.000447803
3791.366,-0.000452562
3789.437,-0.000454785
3787.509,-0.000452872
3785.58,-0.000454734
3783.652,-0.000446459
3781.723,-0.000425409
3779.795,-0.000430012
3777.866,-0.000469525
3775.938,-0.00050407
3774.01,-0.000504638
3772.081,-0.000478161
3770.153,-0.00045313
3768.224,-0.000455354
3766.296,-0.000479247
3764.367,-0.000503397
3762.439,-0.000527856
3760.51,-0.000549936
3758.582,-0.000548953
3756.653,-0.000519945
3754.725,-0.000487935
3752.796,-0.000467404
3750.868,-0.000439063
3748.939,-0.00038734
3747.011,-0.000324696
3745.083,-0.000262094
3743.154,-0.000184114
3741.226,-7.06E-05
3739.297,7.50E-05
3737.369,0.000245831
3735.44,0.00044469
3733.512,0.000644236
3731.583,0.000791019
3729.655,0.000864831
3727.726,0.000867295
3725.798,0.000789904
3723.869,0.000651961
3721.941,0.000486618
3720.012,0.000271836
3718.084,-3.16E-06
3716.156,-0.000238189
3714.227,-0.000305968
3712.299,-0.000199535
3710.37,-2.99E-05
3708.442,0.000120904
3706.513,0.000257953
3704.585,0.000355327
3702.656,0.000351311
3700.728,0.000273494
3698.799,0.000199238
3696.871,0.000131987
3694.942,4.38E-05
3693.014,-5.57E-05
3691.085,-0.000163413
3689.157,-0.00029262
3687.229,-0.000427012
3685.3,-0.000529511
3683.372,-0.000595228
3681.443,-0.000643876
3679.515,-0.000683111
3677.586,-0.000746427
3675.658,-0.00086151
3673.729,-0.000977751
3671.801,-0.001036634
3669.872,-0.001050372
3667.944,-0.001068242
3666.015,-0.001114151
3664.087,-0.001166923
3662.158,-0.001207092
3660.23,-0.00124705
3658.302,-0.00129929
3656.373,-0.001349047
3654.445,-0.001370826
3652.516,-0.001366697
3650.588,-0.001364633
3648.659,-0.001382025
3646.731,-0.001428314
3644.802,-0.001492864
3642.874,-0.001535427
3640.945,-0.001522529
3639.017,-0.001458088
3637.088,-0.001375987
3635.16,-0.001278798
3633.231,-0.00115448
3631.303,-0.001023928
3629.375,-0.000920461
3627.446,-0.000881454
3625.518,-0.00090801
3623.589,-0.000962564
3621.661,-0.001052954
3619.732,-0.001211945
3617.804,-0.001409221
3615.875,-0.00157422
3613.947,-0.001671034
3612.018,-0.001701977
3610.09,-0.001692436
3608.161,-0.001659326
3606.233,-0.001588767
3604.304,-0.001513346
3602.376,-0.001489716
3600.448,-0.001483938
3598.519,-0.001447355
3596.591,-0.001423412
3594.662,-0.001466395
3592.734,-0.001552245
3590.805,-0.00160909
3588.877,-0.001628896
3586.948,-0.001658347
3585.02,-0.001706721
3583.091,-0.001763598
3581.163,-0.001824076
3579.234,-0.001906453
3577.306,-0.002035245
3575.377,-0.00214839
3573.449,-0.00216096
3571.521,-0.00213211
3569.592,-0.002163587
3567.664,-0.00224317
3565.735,-0.002311666
3563.807,-0.002311203
3561.878,-0.002249968
3559.95,-0.002224216
3558.021,-0.002261042
3556.093,-0.002294209
3554.164,-0.002290501
3552.236,-0.00229081
3550.307,-0.002307135
3548.379,-0.002326909
3546.45,-0.002374231
3544.522,-0.002393899
3542.594,-0.002358217
3540.665,-0.002393076
3538.737,-0.002513385
3536.808,-0.002590331
3534.88,-0.002607622
3532.951,-0.002609115
3531.023,-0.002600109
3529.094,-0.002617657
3527.166,-0.002667057
3525.237,-0.002704257
3523.309,-0.002737184
3521.38,-0.002780552
3519.452,-0.002778906
3517.523,-0.002734715
3515.595,-0.002741866
3513.667,-0.00279264
3511.738,-0.002821909
3509.81,-0.002806272
3507.881,-0.002770418
3505.953,-0.002805912
3504.024,-0.002939888
3502.096,-0.00309125
3500.167,-0.00318675
3498.239,-0.003228633
3496.31,-0.003226937
3494.382,-0.00319857
3492.453,-0.003221901
3490.525,-0.003287778
3488.596,-0.003340338
3486.668,-0.003415288
3484.74,-0.003531155
3482.811,-0.003646734
3480.883,-0.003696428
3478.954,-0.003639906
3477.026,-0.003544198
3475.097,-0.003518368
3473.169,-0.003604891
3471.24,-0.003779887
3469.312,-0.003977129
3467.383,-0.00413054
3465.455,-0.004215147
3463.526,-0.004254112
3461.598,-0.004283744
3459.669,-0.004316449
3457.741,-0.004394203
3455.813,-0.004498179
3453.884,-0.004537835
3451.956,-0.004578411
3450.027,-0.004707181
3448.099,-0.004841238
3446.17,-0.004872417
3444.242,-0.00480801
3442.313,-0.004776775
3440.385,-0.004880301
3438.456,-0.005064148
3436.528,-0.005242292
3434.599,-0.00536923
3432.671,-0.005397405
3430.742,-0.005354911
3428.814,-0.005296713
3426.885,-0.005220194
3424.957,-0.005202904
3423.029,-0.005397609
3421.1,-0.005730711
3419.172,-0.005917775
3417.243,-0.005903219
3415.315,-0.005904139
3413.386,-0.006000706
3411.458,-0.006076067
3409.529,-0.006154732
3407.601,-0.006333909
3405.672,-0.0064845
3403.744,-0.006577727
3401.815,-0.006753772
3399.887,-0.006885467
3397.958,-0.006773346
3396.03,-0.006592412
3394.102,-0.006583438
3392.173,-0.006614594
3390.245,-0.00659945
3388.316,-0.006677102
3386.388,-0.006787821
3384.459,-0.006837207
3382.531,-0.006816516
3380.602,-0.006720944
3378.674,-0.006728132
3376.745,-0.006910435
3374.817,-0.007073052
3372.888,-0.007241667
3370.96,-0.007499072
3369.031,-0.007639189
3367.103,-0.007625556
3365.175,-0.007638782
3363.246,-0.007628353
3361.318,-0.007477598
3359.389,-0.007318441
3357.461,-0.00729314
3355.532,-0.007319154
3353.604,-0.007309329
3351.675,-0.007266768
3349.747,-0.007125003
3347.818,-0.00688939
3345.89,-0.006732006
3343.961,-0.006692294
3342.033,-0.006642076
3340.104,-0.006516887
3338.176,-0.006338194
3336.248,-0.006191481
3334.319,-0.006219654
3332.391,-0.006412119
3330.462,-0.006518519
3328.534,-0.006467872
3326.605,-0.006333092
3324.677,-0.006081887
3322.748,-0.005935292
3320.82,-0.006062997
3318.891,-0.006040992
3316.963,-0.005559924
3315.034,-0.005116801
3313.106,-0.005140592
3311.177,-0.005221677
3309.249,-0.00505852
3307.321,-0.004847126
3305.392,-0.004710561
3303.464,-0.004604229
3301.535,-0.004443965
3299.607,-0.00433034
3297.678,-0.004306761
3295.75,-0.004238629
3293.821,-0.004179922
3291.893,-0.004126489
3289.964,-0.003978412
3288.036,-0.003936806
3286.107,-0.004177922
3284.179,-0.004457954
3282.25,-0.004511244
3280.322,-0.004434894
3278.394,-0.004338285
3276.465,-0.004087256
3274.537,-0.003774447
3272.608,-0.003746937
3270.68,-0.003979386
3268.751,-0.004187819
3266.823,-0.004401071
3264.894,-0.004803862
3262.966,-0.005175484
3261.037,-0.005166122
3259.109,-0.004921612
3257.18,-0.004804784
3255.252,-0.004874567
3253.323,-0.004899191
3251.395,-0.004878253
3249.467,-0.005028685
3247.538,-0.005203876
3245.61,-0.005308578
3243.681,-0.005569636
3241.753,-0.005876712
3239.824,-0.005935496
3237.896,-0.005782517
3235.967,-0.005561713
3234.039,-0.005429872
3232.11,-0.005529051
3230.182,-0.0057512
3228.253,-0.005981252
3226.325,-0.0060898
3224.396,-0.005927325
3222.468,-0.005792121
3220.54,-0.005852245
3218.611,-0.005821392
3216.683,-0.005769694
3214.754,-0.005867314
3212.826,-0.00592615
3210.897,-0.00588616
3208.969,-0.005810716
3207.04,-0.005691828
3205.112,-0.005623403
3203.183,-0.005739806
3201.255,-0.005941063
3199.326,-0.005826654
3197.398,-0.005360741
3195.469,-0.005100632
3193.541,-0.005191752
3191.613,-0.005231601
3189.684,-0.005107284
3187.756,-0.004977455
3185.827,-0.004946693
3183.899,-0.005022493
3181.97,-0.005051458
3180.042,-0.004955702
3178.113,-0.004816458
3176.185,-0.004635527
3174.256,-0.004437251
3172.328,-0.004330545
3170.399,-0.00436258
3168.471,-0.004480193
3166.542,-0.004524514
3164.614,-0.004390667
3162.686,-0.004133771
3160.757,-0.003899865
3158.829,-0.003839264
3156.9,-0.003945887
3154.972,-0.00402463
3153.043,-0.003930085
3151.115,-0.003773831
3149.186,-0.003764593
3147.258,-0.003856968
3145.329,-0.003851272
3143.401,-0.003764131
3141.472,-0.00368421
3139.544,-0.003571721
3137.615,-0.003481391
3135.687,-0.003480826
3133.759,-0.003410716
3131.83,-0.003187983
3129.902,-0.002997684
3127.973,-0.002950481
3126.045,-0.002958709
3124.116,-0.002954235
3122.188,-0.002928935
3120.259,-0.002816148
3118.331,-0.002582457
3116.402,-0.002375158
3114.474,-0.002307753
3112.545,-0.002304148
3110.617,-0.002274844
3108.688,-0.002171675
3106.76,-0.00197995
3104.832,-0.001779478
3102.903,-0.001669229
3100.975,-0.001650713
3099.046,-0.001621314
3097.118,-0.001496578
3095.189,-0.001355085
3093.261,-0.001292787
3091.332,-0.001237965
3089.404,-0.001116269
3087.475,-0.00097181
3085.547,-0.000875616
3083.618,-0.000830817
3081.69,-0.000763999
3079.761,-0.000625731
3077.833,-0.000457785
3075.905,-0.000364735
3073.976,-0.000379323
3072.048,-0.00038584
3070.119,-0.000291016
3068.191,-0.000139865
3066.262,-2.28E-05
3064.334,3.32E-05
3062.405,6.57E-05
3060.477,0.000116451
3058.548,0.000187144
3056.62,0.000246945
3054.691,0.00027769
3052.763,0.000285279
3050.834,0.000276887
3048.906,0.000273312
3046.978,0.000308489
3045.049,0.000370042
3043.121,0.000420592
3041.192,0.000462596
3039.264,0.000490428
3037.335,0.000496051
3035.407,0.000496881
3033.478,0.000484027
3031.55,0.000465032
3029.621,0.00047646
3027.693,0.000514218
3025.764,0.000545086
3023.836,0.000539436
3021.907,0.000514866
3019.979,0.000551333
3018.051,0.000655409
3016.122,0.000707833
3014.194,0.000661243
3012.265,0.000601152
3010.337,0.000583421
3008.408,0.000586247
3006.48,0.000583629
3004.551,0.000608176
3002.623,0.000703581
3000.694,0.000815474
2998.766,0.000869811
2996.837,0.000895049
2994.909,0.000942469
2992.98,0.000990646
2991.052,0.001034418
2989.124,0.00113072
2987.195,0.001259079
2985.267,0.001352965
2983.338,0.001427833
2981.41,0.00150965
2979.481,0.00159738
2977.553,0.0017015
2975.624,0.001826102
2973.696,0.001961168
2971.767,0.002088576
2969.839,0.002199031
2967.91,0.002301552
2965.982,0.002417476
2964.053,0.002554314
2962.125,0.002666685
2960.197,0.002713543
2958.268,0.002715393
2956.34,0.002679031
2954.411,0.002593582
2952.483,0.002500157
2950.554,0.002434318
2948.626,0.002378328
2946.697,0.002323542
2944.769,0.00229921
2942.84,0.002315475
2940.912,0.00233934
2938.983,0.002347017
2937.055,0.002333015
2935.126,0.002284585
2933.198,0.002203506
2931.27,0.002127776
2929.341,0.002081631
2927.413,0.002031408
2925.484,0.001951495
2923.556,0.001870218
2921.627,0.001806529
2919.699,0.001742147
2917.77,0.00167333
2915.842,0.001631157
2913.913,0.001617101
2911.985,0.001599095
2910.056,0.001574258
2908.128,0.001548538
2906.199,0.001509832
2904.271,0.001467155
2902.343,0.001438352
2900.414,0.001413627
2898.486,0.00138049
2896.557,0.001346421
2894.629,0.001324376
2892.7,0.001313133
2890.772,0.001303267
2888.843,0.001294206
2886.915,0.001295997
2884.986,0.001320871
2883.058,0.001368908
2881.129,0.001424249
2879.201,0.001470921
2877.272,0.001507624
2875.344,0.001548486
2873.416,0.001592132
2871.487,0.001605876
2869.559,0.001563372
2867.63,0.00147874
2865.702,0.001383399
2863.773,0.001292908
2861.845,0.001209029
2859.916,0.001134172
2857.988,0.001071576
2856.059,0.00101161
2854.131,0.000951938
2852.202,0.000910457
2850.274,0.000883714
2848.345,0.000856894
2846.417,0.000840061
2844.489,0.000842343
2842.56,0.000850513
2840.632,0.000852588
2838.703,0.000849657
2836.775,0.000844315
2834.846,0.000829661
2832.918,0.00080147
2830.989,0.000775096
2829.061,0.000767731
2827.132,0.000774525
2825.204,0.000778286
2823.275,0.000773566
2821.347,0.000770013
2819.418,0.000770791
2817.49,0.000766279
2815.562,0.000752484
2813.633,0.000738611
2811.705,0.000730962
2809.776,0.000724531
2807.848,0.000710141
2805.919,0.000688232
2803.991,0.000671639
2802.062,0.00066508
2800.134,0.000663472
2798.205,0.000661087
2796.277,0.000660594
2794.348,0.00066285
2792.42,0.000650691
2790.491,0.000627256
2788.563,0.00061419
2786.635,0.000606284
2784.706,0.000593997
2782.778,0.000583577
2780.849,0.00057549
2778.921,0.000563541
2776.992,0.00055281
2775.064,0.000547808
2773.135,0.000536818
2771.207,0.000515514
2769.278,0.000497943
2767.35,0.000487214
2765.421,0.000470266
2763.493,0.000453189
2761.564,0.000453111
2759.636,0.000459512
2757.708,0.000451557
2755.779,0.000434895
2753.851,0.000423416
2751.922,0.000414503
2749.994,0.000407351
2748.065,0.000412249
2746.137,0.00042295
2744.208,0.000419659
2742.28,0.000397221
2740.351,0.000372141
2738.423,0.000356648
2736.494,0.000343539
2734.566,0.000330534
2732.637,0.000330198
2730.709,0.000341778
2728.781,0.000345016
2726.852,0.000332218
2724.924,0.000309577
2722.995,0.000284036
2721.067,0.000266189
2719.138,0.000258004
2717.21,0.000256968
2715.281,0.000263029
2713.353,0.000263496
2711.424,0.000247307
2709.496,0.000230187
2707.567,0.000228607
2705.639,0.000230472
2703.71,0.000232078
2701.782,0.000238838
2699.854,0.000235937
2697.925,0.000227934
2695.997,0.00023213
2694.068,0.00023415
2692.14,0.000219025
2690.211,0.000202217
2688.283,0.000205635
2686.354,0.000221304
2684.426,0.000224904
2682.497,0.000221822
2680.569,0.00022322
2678.64,0.000218377
2676.712,0.000209339
2674.783,0.000209623
2672.855,0.000205195
2670.927,0.000184477
2668.998,0.000175076
2667.07,0.000183027
2665.141,0.000181654
2663.213,0.000175879
2661.284,0.000174947
2659.356,0.000174558
2657.427,0.000185331
2655.499,0.000202631
2653.57,0.000207111
2651.642,0.000199653
2649.713,0.000189294
2647.785,0.000175931
2645.856,0.000163112
2643.928,0.000159979
2642,0.000163811
2640.071,0.000169042
2638.143,0.000173678
2636.214,0.000171762
2634.286,0.000167385
2632.357,0.000162594
2630.429,0.000144494
2628.5,0.000116994
2626.572,0.000100579
2624.643,0.00010322
2622.715,0.000113266
2620.786,0.000121578
2618.858,0.000130148
2616.929,0.000122898
2615.001,9.99E-05
2613.073,0.000107311
2611.144,0.000141542
2609.216,0.00014698
2607.287,0.000115778
2605.359,8.00E-05
2603.43,5.17E-05
2601.502,3.01E-05
2599.573,4.02E-05
2597.645,8.67E-05
2595.716,9.74E-05
2593.788,3.53E-05
2591.859,-1.48E-05
2589.931,8.36E-06
2588.002,3.84E-05
2586.074,2.23E-05
2584.146,1.19E-05
2582.217,3.35E-05
2580.289,3.76E-05
2578.36,1.89E-05
2576.432,2.16E-05
2574.503,3.90E-05
2572.575,3.80E-05
2570.646,2.98E-05
2568.718,2.94E-05
2566.789,-1.04E-07
2564.861,-6.36E-05
2562.932,-7.94E-05
2561.004,-3.72E-05
2559.075,-4.58E-05
2557.147,-0.000110001
2555.219,-0.00010555
2553.29,-2.92E-05
2551.362,9.89E-06
2549.433,-7.77E-06
2547.505,-2.94E-05
2545.576,-3.90E-05
2543.648,-5.96E-05
2541.719,-0.00010348
2539.791,-0.000146956
2537.862,-0.000165225
2535.934,-0.000179508
2534.005,-0.000200466
2532.077,-0.000184528
2530.148,-0.000142505
2528.22,-0.000116264
2526.292,-7.47E-05
2524.363,-3.19E-05
2522.435,-7.22E-05
2520.506,-0.000140072
2518.578,-0.000127237
2516.649,-9.02E-05
2514.721,-9.00E-05
2512.792,-9.34E-05
2510.864,-9.67E-05
2508.935,-0.000122941
2507.007,-0.00015327
2505.078,-0.000135828
2503.15,-8.85E-05
2501.221,-7.94E-05
2499.293,-8.02E-05
2497.365,-3.50E-05
2495.436,-2.21E-05
2493.508,-9.61E-05
2491.579,-0.000152235
2489.651,-0.000144989
2487.722,-0.000137019
2485.794,-0.000155754
2483.865,-0.000175575
2481.937,-0.000170503
2480.008,-0.00017485
2478.08,-0.00021894
2476.151,-0.000254592
2474.223,-0.000253298
2472.294,-0.000257023
2470.366,-0.000260076
2468.438,-0.000217077
2466.509,-0.000176455
2464.581,-0.00018784
2462.652,-0.000218888
2460.724,-0.000250556
2458.795,-0.000273891
2456.867,-0.000280048
2454.938,-0.00028279
2453.01,-0.000278392
2451.081,-0.000273684
2449.153,-0.000275029
2447.224,-0.00024238
2445.296,-0.00020145
2443.367,-0.000232549
2441.439,-0.000325679
2439.51,-0.000385271
2437.582,-0.000357545
2435.654,-0.000307882
2433.725,-0.000319471
2431.797,-0.000364373
2429.868,-0.000342026
2427.94,-0.00028429
2426.011,-0.00030902
2424.083,-0.000364735
2422.154,-0.000359563
2420.226,-0.00034394
2418.297,-0.000376736
2416.369,-0.000408237
2414.44,-0.000378185
2412.512,-0.000331783
2410.583,-0.000320867
2408.655,-0.000320712
2406.727,-0.000289774
2404.798,-0.000234101
2402.87,-0.000224736
2400.941,-0.000291585
2399.013,-0.000352734
2397.084,-0.000355476
2395.156,-0.000345906
2393.227,-0.000357545
2391.299,-0.000355217
2389.37,-0.000252988
2387.442,4.13E-05
2385.513,0.000641825
2383.585,0.001713195
2381.656,0.003465633
2379.728,0.006068795
2377.8,0.009435224
2375.871,0.01323354
2373.943,0.01707759
2372.014,0.02066294
2370.086,0.02387949
2368.157,0.02675119
2366.229,0.02925675
2364.3,0.03122758
2362.372,0.03249257
2360.443,0.03293306
2358.515,0.03241776
2356.586,0.03084787
2354.658,0.02802323
2352.729,0.02360535
2350.801,0.01866448
2348.873,0.01625516
2346.944,0.0180229
2345.016,0.02180684
2343.087,0.02419188
2341.159,0.0246817
2339.23,0.02437895
2337.302,0.02380404
2335.373,0.02320867
2333.445,0.02280313
2331.516,0.02245325
2329.588,0.02169381
2327.659,0.02052731
2325.731,0.01947246
2323.802,0.01864346
2321.874,0.01758505
2319.946,0.0159828
2318.017,0.01407207
2316.089,0.01232159
2314.16,0.01090952
2312.232,0.009594404
2310.303,0.008228909
2308.375,0.006905277
2306.446,0.005695835
2304.518,0.004666726
2302.589,0.003867709
2300.661,0.003220868
2298.732,0.002607071
2296.804,0.002049041
2294.875,0.001631885
2292.947,0.00131277
2291.019,0.00099088
2289.09,0.000663031
2287.162,0.000354938
2285.233,8.77E-05
2283.305,-9.25E-05
2281.376,-0.000184942
2279.448,-0.000102496
2277.519,0.000192867
2275.591,0.000492397
2273.662,0.00065572
2271.734,0.000647087
2269.805,0.000455936
2267.877,0.000174662
2265.948,-0.000112175
2264.02,-0.000312073
2262.092,-0.000268199
2260.163,-8.07E-05
2258.235,-4.08E-05
2256.306,-9.51E-05
2254.378,-9.24E-05
2252.449,-0.000128686
2250.521,-0.000175627
2248.592,-0.000106534
2246.664,4.66E-05
2244.735,0.000211229
2242.807,0.000223661
2240.878,-5.26E-05
2238.95,-0.000429029
2237.021,-0.000617356
2235.093,-0.000494399
2233.165,-0.000196275
2231.236,-0.000117558
2229.308,-0.00044589
2227.379,-0.000895869
2225.451,-0.001155306
2223.522,-0.001131192
2221.594,-0.000819294
2219.665,-0.000405909
2217.737,-0.000222045
2215.808,-0.000411806
2213.88,-0.000552676
2211.951,-0.000226029
2210.023,0.00019279
2208.094,0.000377996
2206.166,0.000250027
2204.238,-0.000182872
2202.309,-0.000251228
2200.381,0.000465757
2198.452,0.001095684
2196.524,0.000505614
2194.595,-0.000763482
2192.667,-0.001158352
2190.738,-0.000522479
2188.81,7.17E-05
2186.881,-7.08E-05
2184.953,-0.000593729
2183.024,-0.000874221
2181.096,-0.001114564
