Wavenumbers [1/cm],absorbance
3997.712,-0.000197983
3995.783,-0.000180698
3993.855,-0.000170452
3991.926,-0.000183131
3989.998,-0.000212731
3988.069,-0.000233687
3986.141,-0.000236585
3984.212,-0.000225564
3982.284,-0.000214024
3980.355,-0.000215732
3978.427,-0.000221838
3976.499,-0.000230221
3974.57,-0.000242277
3972.642,-0.000238189
3970.713,-0.000226754
3968.785,-0.000227426
3966.856,-0.000224787
3964.928,-0.000205538
3962.999,-0.000191255
3961.071,-0.000203468
3959.142,-0.000222045
3957.214,-0.000231411
3955.285,-0.000238965
3953.357,-0.000249676
3951.428,-0.000260645
3949.5,-0.000253815
3947.572,-0.000234464
3945.643,-0.000233118
3943.715,-0.00024326
3941.786,-0.000241035
3939.858,-0.000228254
3937.929,-0.000214956
3936.001,-0.000211075
3934.072,-0.000225978
3932.144,-0.000242329
3930.215,-0.000251694
3928.287,-0.000275339
3926.358,-0.000298518
3924.43,-0.000291896
3922.501,-0.000270476
3920.573,-0.000256972
3918.645,-0.000247244
3916.716,-0.000231152
3914.788,-0.000216301
3912.859,-0.000217077
3910.931,-0.000229755
3909.002,-0.000236896
3907.074,-0.000237206
3905.145,-0.000242794
3903.217,-0.000249831
3901.288,-0.000250763
3899.36,-0.00024683
3897.431,-0.000240518
3895.503,-0.000244398
3893.574,-0.000253867
3891.646,-0.000243622
3889.718,-0.000221579
3887.789,-0.000215628
3885.861,-0.000227996
3883.932,-0.000236844
3882.004,-0.000230479
3880.075,-0.000225926
3878.147,-0.000231618
3876.218,-0.000235447
3874.29,-0.000236947
3872.361,-0.000244605
3870.433,-0.000250452
3868.504,-0.000244243
3866.576,-0.000234464
3864.647,-0.000232135
3862.719,-0.000237775
3860.791,-0.00023762
3858.862,-0.000223442
3856.934,-0.000222925
3855.005,-0.000255316
3853.077,-0.000285015
3851.148,-0.000283307
3849.22,-0.000269441
3847.291,-0.00026406
3845.363,-0.000268665
3843.434,-0.000271407
3841.506,-0.000265612
3839.577,-0.000266337
3837.649,-0.00027001
3835.72,-0.000265923
3833.792,-0.0002697
3831.864,-0.000277875
3829.935,-0.000270838
3828.007,-0.00025485
3826.078,-0.000255057
3824.15,-0.000274098
3822.221,-0.000283411
3820.293,-0.000281186
3818.364,-0.000298259
3816.436,-0.000333594
3814.507,-0.000350406
3812.579,-0.000325575
3810.65,-0.00028279
3808.722,-0.000261887
3806.793,-0.00026763
3804.865,-0.000289671
3802.937,-0.000323092
3801.008,-0.000348286
3799.08,-0.000347561
3797.151,-0.000326041
3795.223,-0.000297742
3793.294,-0.000271769
3791.366,-0.000262094
3789.437,-0.000276995
3787.509,-0.000297432
3785.58,-0.00030664
3783.652,-0.000303588
3781.723,-0.00028398
3779.795,-0.000264371
3777.866,-0.000266182
3775.938,-0.000275909
3774.01,-0.000283514
3772.081,-0.000290654
3770.153,-0.000288481
3768.224,-0.000277978
3766.296,-0.000267579
3764.367,-0.000267734
3762.439,-0.000276064
3760.51,-0.000271045
3758.582,-0.000261939
3756.653,-0.000275339
3754.725,-0.000305813
3752.796,-0.000321954
3750.868,-0.000303485
3748.939,-0.000268355
3747.011,-0.000242329
3745.083,-0.000221734
3743.154,-0.000167553
3741.226,-5.62E-05
3739.297,6.92E-05
3737.369,0.000169327
3735.44,0.000271214
3733.512,0.000391054
3731.583,0.000473713
3729.655,0.000484752
3727.726,0.000463451
3725.798,0.000440751
3723.869,0.000408673
3721.941,0.000322814
3720.012,0.000149336
3718.084,-5.55E-05
3716.156,-0.000202795
3714.227,-0.000246934
3712.299,-0.000196637
3710.37,-9.34E-05
3708.442,2.76E-05
3706.513,0.000136881
3704.585,0.000216176
3702.656,0.000244821
3700.728,0.000197788
3698.799,0.000115441
3696.871,6.08E-05
3694.942,1.24E-05
3693.014,-7.31E-05
3691.085,-0.000173867
3689.157,-0.000263025
3687.229,-0.000341923
3685.3,-0.00039603
3683.372,-0.000438442
3681.443,-0.00050981
3679.515,-0.000593884
3677.586,-0.000654008
3675.658,-0.000684817
3673.729,-0.000701616
3671.801,-0.000737331
3669.872,-0.000787668
3667.944,-0.000826115
3666.015,-0.000865489
3664.087,-0.000897781
3662.158,-0.000892511
3660.23,-0.000885691
3658.302,-0.000939214
3656.373,-0.001031521
3654.445,-0.001096129
3652.516,-0.001118076
3650.588,-0.001112344
3648.659,-0.001094993
3646.731,-0.001057396
3644.802,-0.000991542
3642.874,-0.00095497
3640.945,-0.000965973
3639.017,-0.00096618
3637.088,-0.000937561
3635.16,-0.000887809
3633.231,-0.000802706
3631.303,-0.000705337
3629.375,-0.00064186
3627.446,-0.000608515
3625.518,-0.00059559
3623.589,-0.00062144
3621.661,-0.000683214
3619.732,-0.000789787
3617.804,-0.000966335
3615.875,-0.001147302
3613.947,-0.001225575
3612.018,-0.001198522
3610.09,-0.001132586
3608.161,-0.001084819
3606.233,-0.001068035
3604.304,-0.001045827
3602.376,-0.00099397
3600.448,-0.000951044
3598.519,-0.000964268
3596.591,-0.000983691
3594.662,-0.000967781
3592.734,-0.000961169
3590.805,-0.000970415
3588.877,-0.001003836
3586.948,-0.001074129
3585.02,-0.001125718
3583.091,-0.00114911
3581.163,-0.001197851
3579.234,-0.001269196
3577.306,-0.001321692
3575.377,-0.001361433
3573.449,-0.001403803
3571.521,-0.001438015
3569.592,-0.001455817
3567.664,-0.001429656
3565.735,-0.001352969
3563.807,-0.0012996
3561.878,-0.001320659
3559.95,-0.001385896
3558.021,-0.001461854
3556.093,-0.001519692
3554.164,-0.001556268
3552.236,-0.001583299
3550.307,-0.001552399
3548.379,-0.001466859
3546.45,-0.00141851
3544.522,-0.001444104
3542.594,-0.001492193
3540.665,-0.001535994
3538.737,-0.001625183
3536.808,-0.001729101
3534.88,-0.001743797
3532.951,-0.001688671
3531.023,-0.001651126
3529.094,-0.001651436
3527.166,-0.001665257
3525.237,-0.001655613
3523.309,-0.001643493
3521.38,-0.001688775
3519.452,-0.001716106
3517.523,-0.001697335
3515.595,-0.001799947
3513.667,-0.002007624
3511.738,-0.002103002
3509.81,-0.002058124
3507.881,-0.001995256
3505.953,-0.001977682
3504.024,-0.002042562
3502.096,-0.002154057
3500.167,-0.002179762
3498.239,-0.002157457
3496.31,-0.002229315
3494.382,-0.002300543
3492.453,-0.002261866
3490.525,-0.002258982
3488.596,-0.00235693
3486.668,-0.002414237
3484.74,-0.002392767
3482.811,-0.002370215
3480.883,-0.002382006
3478.954,-0.002394157
3477.026,-0.002364499
3475.097,-0.002348794
3473.169,-0.002438125
3471.24,-0.00259944
3469.312,-0.002707602
3467.383,-0.002757094
3465.455,-0.002828493
3463.526,-0.0029024
3461.598,-0.002929398
3459.669,-0.002914022
3457.741,-0.002930838
3455.813,-0.003048017
3453.884,-0.003153857
3451.956,-0.003137255
3450.027,-0.003078605
3448.099,-0.003026321
3446.17,-0.002967913
3444.242,-0.002973877
3442.313,-0.003056602
3440.385,-0.00314183
3438.456,-0.003221285
3436.528,-0.003349534
3434.599,-0.003588974
3432.671,-0.003856609
3430.742,-0.003948554
3428.814,-0.003892065
3426.885,-0.003864819
3424.957,-0.003921722
3423.029,-0.004062176
3421.1,-0.004187562
3419.172,-0.00417782
3417.243,-0.004130489
3415.315,-0.004181409
3413.386,-0.004291177
3411.458,-0.004354994
3409.529,-0.004315218
3407.601,-0.004305479
3405.672,-0.004486906
3403.744,-0.004633325
3401.815,-0.004584097
3399.887,-0.004597416
3397.958,-0.004727513
3396.03,-0.004760901
3394.102,-0.0046407
3392.173,-0.004574978
3390.245,-0.004720906
3388.316,-0.004793058
3386.388,-0.004638242
3384.459,-0.004592959
3382.531,-0.004694173
3380.602,-0.004692687
3378.674,-0.004753988
3376.745,-0.004995624
3374.817,-0.005064967
3372.888,-0.004892126
3370.96,-0.004854089
3369.031,-0.005053249
3367.103,-0.005169754
3365.175,-0.00509833
3363.246,-0.005136653
3361.318,-0.00538953
3359.389,-0.0056418
3357.461,-0.005693616
3355.532,-0.005521127
3353.604,-0.005246844
3351.675,-0.005003455
3349.747,-0.004900777
3347.818,-0.004989073
3345.89,-0.005085845
3343.961,-0.004936968
3342.033,-0.004748662
3340.104,-0.004792085
3338.176,-0.004818659
3336.248,-0.004792034
3334.319,-0.004988152
3332.391,-0.00526265
3330.462,-0.005264184
3328.534,-0.004943827
3326.605,-0.004494745
3324.677,-0.004158488
3322.748,-0.004005138
3320.82,-0.003823613
3318.891,-0.003643808
3316.963,-0.003705668
3315.034,-0.003841163
3313.106,-0.003823715
3311.177,-0.003691089
3309.249,-0.003474098
3307.321,-0.003337204
3305.392,-0.003547998
3303.464,-0.003911666
3301.535,-0.004041455
3299.607,-0.003945066
3297.678,-0.003747552
3295.75,-0.003576959
3293.821,-0.003532079
3291.893,-0.003491355
3289.964,-0.003342701
3288.036,-0.003185825
3286.107,-0.003167271
3284.179,-0.003214142
3282.25,-0.003253864
3280.322,-0.003332529
3278.394,-0.003418421
3276.465,-0.00352376
3274.537,-0.00349649
3272.608,-0.003110167
3270.68,-0.002766508
3268.751,-0.002920502
3266.823,-0.003282588
3264.894,-0.003518522
3262.966,-0.003546458
3261.037,-0.00340224
3259.109,-0.003444514
3257.18,-0.003644578
3255.252,-0.003662546
3253.323,-0.003772189
3251.395,-0.004097616
3249.467,-0.004226325
3247.538,-0.004170077
3245.61,-0.004198176
3243.681,-0.00422535
3241.753,-0.004164591
3239.824,-0.004122181
3237.896,-0.004096231
3235.967,-0.003972256
3234.039,-0.003792359
3232.11,-0.003766338
3230.182,-0.003925929
3228.253,-0.004112438
3226.325,-0.004227452
3224.396,-0.004363298
3222.468,-0.004570367
3220.54,-0.004605971
3218.611,-0.004405529
3216.683,-0.004140438
3214.754,-0.003893297
3212.826,-0.003857173
3210.897,-0.003989903
3208.969,-0.003986928
3207.04,-0.003870925
3205.112,-0.003757202
3203.183,-0.003665986
3201.255,-0.003637955
3199.326,-0.003638982
3197.398,-0.003595033
3195.469,-0.003479131
3193.541,-0.003471633
3191.613,-0.003651714
3189.684,-0.003757202
3187.756,-0.003700688
3185.827,-0.003564995
3183.899,-0.003407839
3181.97,-0.003320044
3180.042,-0.003266556
3178.113,-0.003204326
3176.185,-0.003183872
3174.256,-0.003224163
3172.328,-0.003259106
3170.399,-0.003246773
3168.471,-0.003218715
3166.542,-0.00312754
3164.614,-0.003052952
3162.686,-0.003210082
3160.757,-0.003482007
3158.829,-0.00358158
3156.9,-0.003499366
3154.972,-0.00343645
3153.043,-0.003497209
3151.115,-0.003534287
3149.186,-0.003419962
3147.258,-0.003246927
3145.329,-0.003053261
3143.401,-0.002826847
3141.472,-0.00267956
3139.544,-0.002658567
3137.615,-0.002662169
3135.687,-0.002590794
3133.759,-0.002495935
3131.83,-0.002466542
3129.902,-0.002468756
3127.973,-0.002459695
3126.045,-0.002425254
3124.116,-0.00237387
3122.188,-0.002336487
3120.259,-0.002301882
3118.331,-0.002267737
3116.402,-0.002233641
3114.474,-0.002160702
3112.545,-0.002033957
3110.617,-0.001899082
3108.688,-0.001812888
3106.76,-0.001779788
3104.832,-0.001784325
3102.903,-0.001806237
3100.975,-0.001782211
3099.046,-0.001675727
3097.118,-0.0015378
3095.189,-0.001413453
3093.261,-0.001319524
3091.332,-0.001265428
3089.404,-0.001181174
3087.475,-0.001031469
3085.547,-0.000930328
3083.618,-0.00091421
3081.69,-0.000864765
3079.761,-0.000751957
3077.833,-0.000652561
3075.905,-0.000570152
3073.976,-0.000475627
3072.048,-0.000403323
3070.119,-0.000364425
3068.191,-0.000315022
3066.262,-0.000247141
3064.334,-0.000200673
3062.405,-0.000180698
3060.477,-0.000156582
3058.548,-0.000114712
3056.62,-7.01E-05
3054.691,-4.10E-05
3052.763,-2.38E-05
3050.834,-1.64E-05
3048.906,-3.93E-06
3046.978,1.73E-05
3045.049,1.76E-06
3043.121,-3.61E-05
3041.192,-3.84E-05
3039.264,-1.47E-05
3037.335,2.09E-05
3035.407,6.13E-05
3033.478,8.02E-05
3031.55,7.93E-05
3029.621,7.03E-05
3027.693,6.38E-05
3025.764,7.61E-05
3023.836,9.30E-05
3021.907,0.000105705
3019.979,0.000132556
3018.051,0.000152935
3016.122,0.000139755
3014.194,0.000122846
3012.265,0.000121785
3010.337,0.000117202
3008.408,0.000111298
3006.48,0.000110366
3004.551,0.000109304
3002.623,0.000127792
3000.694,0.000169664
2998.766,0.000200015
2996.837,0.000229125
2994.909,0.000298801
2992.98,0.0003888
2991.052,0.000469826
2989.124,0.00055027
2987.195,0.000621682
2985.267,0.000682294
2983.338,0.00074696
2981.41,0.000811143
2979.481,0.000878241
2977.553,0.000947839
2975.624,0.001018486
2973.696,0.001104949
2971.767,0.001201527
2969.839,0.001293583
2967.91,0.001373972
2965.982,0.001438559
2964.053,0.001502922
2962.125,0.001577609
2960.197,0.001650697
2958.268,0.001696692
2956.34,0.001684556
2954.411,0.001611956
2952.483,0.001522041
2950.554,0.001450636
2948.626,0.001403499
2946.697,0.001386593
2944.769,0.001391838
2942.84,0.00139937
2940.912,0.00141451
2938.983,0.001449052
2937.055,0.001487026
2935.126,0.001496844
2933.198,0.00147861
2931.27,0.001466428
2929.341,0.001479415
2927.413,0.001506221
2925.484,0.001513702
2923.556,0.00147261
2921.627,0.001401681
2919.699,0.001335256
2917.77,0.0012799
2915.842,0.001235922
2913.913,0.001192779
2911.985,0.001140479
2910.056,0.00109283
2908.128,0.001048274
2906.199,0.000994745
2904.271,0.00094099
2902.343,0.000903765
2900.414,0.000885503
2898.486,0.000866361
2896.557,0.000833369
2894.629,0.000803804
2892.7,0.000795764
2890.772,0.000804193
2888.843,0.000811247
2886.915,0.00081563
2884.986,0.000834796
2883.058,0.000869214
2881.129,0.000904387
2879.201,0.000932351
2877.272,0.000951782
2875.344,0.000969008
2873.416,0.000981877
2871.487,0.000976351
2869.559,0.000953857
2867.63,0.00092156
2865.702,0.000872586
2863.773,0.000805801
2861.845,0.000746183
2859.916,0.000713511
2857.988,0.000699277
2856.059,0.000689398
2854.131,0.000675528
2852.202,0.000663005
2850.274,0.000657691
2848.345,0.000641384
2846.417,0.000600685
2844.489,0.000555091
2842.56,0.000533838
2840.632,0.000541976
2838.703,0.000556568
2836.775,0.000557838
2834.846,0.000553432
2832.918,0.000547393
2830.989,0.000525052
2829.061,0.000500638
2827.132,0.000504604
2825.204,0.000529095
2823.275,0.000537596
2821.347,0.000515203
2819.418,0.00048229
2817.49,0.000460704
2815.562,0.000460445
2813.633,0.000472391
2811.705,0.000472857
2809.776,0.000468426
2807.848,0.000476149
2805.919,0.000484078
2803.991,0.00048242
2802.062,0.000478455
2800.134,0.000476382
2798.205,0.000473635
2796.277,0.000471199
2794.348,0.000472365
2792.42,0.000469489
2790.491,0.000456376
2788.563,0.000440596
2786.635,0.00042567
2784.706,0.00040787
2782.778,0.000390717
2780.849,0.000382867
2778.921,0.000384966
2776.992,0.000391935
2775.064,0.000392816
2773.135,0.000374084
2771.207,0.000352606
2769.278,0.000354446
2767.35,0.000366441
2765.421,0.000365431
2763.493,0.000352866
2761.564,0.00034429
2759.636,0.000342736
2757.708,0.000339705
2755.779,0.000331001
2753.851,0.000313411
2751.922,0.000292688
2749.994,0.000281627
2748.065,0.000281031
2746.137,0.000283492
2744.208,0.000280928
2742.28,0.00027238
2740.351,0.000262356
2738.423,0.000251866
2736.494,0.000247204
2734.566,0.000250182
2732.637,0.000248784
2730.709,0.000240625
2728.781,0.000229773
2726.852,0.000215347
2724.924,0.000201673
2722.995,0.000196856
2721.067,0.000200792
2719.138,0.000197659
2717.21,0.000180618
2715.281,0.000166686
2713.353,0.00016956
2711.424,0.000180955
2709.496,0.000184762
2707.567,0.000179815
2705.639,0.000177899
2703.71,0.000178831
2701.782,0.000178935
2699.854,0.000182042
2697.925,0.000182923
2695.997,0.000173807
2694.068,0.00016319
2692.14,0.000156198
2690.211,0.00015032
2688.283,0.000149543
2686.354,0.000152521
2684.426,0.000156561
2682.497,0.000161067
2680.569,0.000158658
2678.64,0.00015379
2676.712,0.000152521
2674.783,0.000144804
2672.855,0.000131443
2670.927,0.000125177
2668.998,0.000125332
2667.07,0.000122976
2665.141,0.000119739
2663.213,0.000121034
2661.284,0.000116994
2659.356,0.000103841
2657.427,9.73E-05
2655.499,9.89E-05
2653.57,9.62E-05
2651.642,9.36E-05
2649.713,9.87E-05
2647.785,9.68E-05
2645.856,7.40E-05
2643.928,4.54E-05
2642,3.09E-05
2640.071,3.01E-05
2638.143,3.51E-05
2636.214,4.97E-05
2634.286,7.99E-05
2632.357,9.97E-05
2630.429,9.34E-05
2628.5,8.78E-05
2626.572,8.23E-05
2624.643,6.04E-05
2622.715,4.67E-05
2620.786,4.61E-05
2618.858,2.24E-05
2616.929,-1.39E-05
2615.001,-1.32E-05
2613.073,2.51E-05
2611.144,6.35E-05
2609.216,7.38E-05
2607.287,6.43E-05
2605.359,6.69E-05
2603.43,7.13E-05
2601.502,5.83E-05
2599.573,5.20E-05
2597.645,6.25E-05
2595.716,6.27E-05
2593.788,2.67E-05
2591.859,-3.29E-05
2589.931,-7.02E-05
2588.002,-7.29E-05
2586.074,-5.98E-05
2584.146,-3.24E-05
2582.217,-1.55E-05
2580.289,-4.48E-05
2578.36,-9.07E-05
2576.432,-0.000102238
2574.503,-6.60E-05
2572.575,-6.57E-06
2570.646,1.98E-05
2568.718,-1.24E-05
2566.789,-6.80E-05
2564.861,-0.000111295
2562.932,-0.000123717
2561.004,-8.48E-05
2559.075,-2.64E-05
2557.147,-2.30E-05
2555.219,-7.47E-05
2553.29,-0.000116057
2551.362,-0.000110416
2549.433,-7.68E-05
2547.505,-5.67E-05
2545.576,-6.13E-05
2543.648,-7.94E-05
2541.719,-9.80E-05
2539.791,-0.000105447
2537.862,-0.000106792
2535.934,-0.000102755
2534.005,-7.93E-05
2532.077,-4.42E-05
2530.148,-3.60E-05
2528.22,-6.24E-05
2526.292,-9.23E-05
2524.363,-0.000111554
2522.435,-0.000124701
2520.506,-0.000144989
2518.578,-0.000159894
2516.649,-0.00012998
2514.721,-8.70E-05
2512.792,-6.82E-05
2510.864,-3.79E-05
2508.935,-2.07E-06
2507.007,-8.80E-07
2505.078,-1.13E-05
2503.15,-1.42E-05
2501.221,-6.12E-05
2499.293,-0.000159377
2497.365,-0.000215214
2495.436,-0.000196223
2493.508,-0.000158652
2491.579,-0.000138209
2489.651,-0.000131947
2487.722,-0.000126771
2485.794,-0.000119163
2483.865,-0.00010524
2481.937,-0.000100374
2480.008,-0.000136915
2478.08,-0.000195136
2476.151,-0.000235447
2474.223,-0.000253402
2472.294,-0.000240569
2470.366,-0.000184062
2468.438,-0.000134897
2466.509,-0.000142815
2464.581,-0.000155961
2462.652,-0.000132827
2460.724,-0.000111088
2458.795,-0.000104722
2456.867,-0.000100322
2454.938,-0.000117403
2453.01,-0.000164397
2451.081,-0.000213455
2449.153,-0.00023405
2447.224,-0.000207866
2445.296,-0.000167553
2443.367,-0.000161602
2441.439,-0.000173764
2439.51,-0.00016155
2437.582,-0.000153218
2435.654,-0.000222459
2433.725,-0.000319471
2431.797,-0.000334422
2429.868,-0.000288171
2427.94,-0.000247762
2426.011,-0.000207608
2424.083,-0.000167864
2422.154,-0.000177593
2420.226,-0.000228358
2418.297,-0.000254592
2416.369,-0.000240725
2414.44,-0.000217026
2412.512,-0.000202071
2410.583,-0.000209574
2408.655,-0.000239741
2406.727,-0.000259197
2404.798,-0.000259248
2402.87,-0.000250711
2400.941,-0.000230531
2399.013,-0.000207815
2397.084,-0.000191617
2395.156,-0.000199794
2393.227,-0.000229651
2391.299,-0.000237517
2389.37,-0.00019141
2387.442,-4.20E-05
2385.513,0.000329446
2383.585,0.001055799
2381.656,0.002229733
2379.728,0.003887063
2377.8,0.005966799
2375.871,0.008310197
2373.943,0.01069862
2372.014,0.01294141
2370.086,0.01496954
2368.157,0.01676341
2366.229,0.01826965
2364.3,0.01944311
2362.372,0.02025438
2360.443,0.02058048
2358.515,0.02028893
2356.586,0.0193343
2354.658,0.01756152
2352.729,0.01475492
2350.801,0.01164782
2348.873,0.01014916
2346.944,0.01125009
2345.016,0.01360651
2343.087,0.01509675
2341.159,0.01539719
2339.23,0.01519201
2337.302,0.01481585
2335.373,0.01445147
2333.445,0.01425912
2331.516,0.01411464
2329.588,0.0136492
2327.659,0.01286731
2325.731,0.01216529
2323.802,0.01164152
2321.874,0.01099442
2319.946,0.01003751
2318.017,0.008892083
2316.089,0.007795789
2314.16,0.006885315
2312.232,0.00604525
2310.303,0.005173326
2308.375,0.00431651
2306.446,0.003534656
2304.518,0.00288732
2302.589,0.002376116
2300.661,0.001932929
2298.732,0.001535367
2296.804,0.001225071
2294.875,0.000998274
2292.947,0.000791174
2291.019,0.000553225
2289.09,0.000292947
2287.162,6.30E-05
2285.233,-6.78E-05
2283.305,-0.00010731
2281.376,-0.000193636
2279.448,-0.000304933
2277.519,-0.000314866
2275.591,-0.000267372
2273.662,-0.000223545
2271.734,-0.000299553
2269.805,-0.000486746
2267.877,-0.00049471
2265.948,-0.000310572
2264.02,-0.000180854
2262.092,-0.000170452
2260.163,-0.000253919
2258.235,-0.000327179
2256.306,-0.000336129
2254.378,-0.000432908
2252.449,-0.000574392
2250.521,-0.000634364
2248.592,-0.000764774
2246.664,-0.000838413
2244.735,-0.000423288
2242.807,0.000250286
2240.878,0.000520231
2238.95,0.000343151
2237.021,-2.17E-06
2235.093,-0.000308296
2233.165,-0.000281341
2231.236,-5.51E-05
2229.308,-0.00014473
2227.379,-0.000499726
2225.451,-0.000795678
2223.522,-0.001085284
2221.594,-0.0012026
2219.665,-0.00085469
2217.737,-0.000183803
2215.808,0.00032398
2213.88,0.000232026
2211.951,-0.000223856
2210.023,-0.00068461
2208.094,-0.001084509
2206.166,-0.001209364
2204.238,-0.00118897
2202.309,-0.001181948
2200.381,-0.000679906
2198.452,9.20E-05
2196.524,0.000315898
2194.595,0.000487473
2192.667,0.001108712
2190.738,0.001248227
2188.81,0.000243604
2186.881,-0.001129333
2184.953,-0.001796441
2183.024,-0.001505504
2181.096,-0.000565706
2179.167,-0.000187736
2177.239,-0.00124607
2175.311,-0.002785284
